time (s)	coil I (A)	last det (V)	int current (uC)
9067.374050	0.659209	0.323510	297.303253
9067.374973	0.255179	0.323510	532.833862
9067.375883	0.249448	0.323510	759.831726
9067.376821	0.390183	0.323510	1125.823486
9067.377739	0.099031	0.323510	1216.733765
9067.378639	0.101437	0.323510	1308.026855
9067.379531	0.101664	0.323510	1398.710937
9067.380480	0.100148	0.323510	1493.751099
9067.381381	0.099639	0.323510	1583.525513
9067.382278	0.101202	0.323510	1674.304077
9067.383165	0.099924	0.323510	1762.937012
9067.384092	0.098976	0.323510	1854.687622
9067.385005	0.099829	0.323510	1945.831543
9067.385902	0.100807	0.323510	2036.255371
9068.385743	0.718923	0.328796	318.483032
9068.386639	0.254824	0.328796	546.805542
9068.387615	0.249313	0.328796	790.134766
9068.388538	0.474697	0.328796	1228.280273
9068.389433	0.101276	0.328796	1318.921997
9068.390322	0.100701	0.328796	1408.444946
9068.391272	0.100082	0.328796	1503.522705
9068.392176	0.101499	0.328796	1595.277832
9068.393064	0.102689	0.328796	1686.465820
9068.393993	0.099979	0.328796	1779.346558
9068.394901	0.100049	0.328796	1870.190918
9068.395795	0.101693	0.328796	1961.104614
9068.396683	0.101155	0.328796	2050.930176
9068.397628	0.098708	0.328796	2144.209717
9069.392331	0.718942	0.333698	312.739594
9069.393255	0.254469	0.333698	547.868958
9069.394197	0.248895	0.333698	782.328308
9069.395112	0.490477	0.333698	1231.114990
9069.396005	0.101495	0.333698	1321.750366
9069.396954	0.099862	0.333698	1416.519409
9069.397857	0.099983	0.333698	1506.803955
9069.398754	0.101726	0.333698	1598.052246
9069.399645	0.101180	0.333698	1688.203979
9069.400576	0.098950	0.333698	1780.326660
9069.401483	0.099675	0.333698	1870.732178
9069.402380	0.100723	0.333698	1961.080444
9069.403306	0.100089	0.333698	2053.762939
9069.404217	0.098745	0.333698	2143.719727
9070.415320	0.710336	0.325815	316.099365
9070.416216	0.254788	0.325815	544.389038
9070.417191	0.249053	0.325815	787.215454
9070.418121	0.455911	0.325815	1211.212402
9070.419014	0.101034	0.325815	1301.435669
9070.419908	0.100356	0.325815	1391.154297
9070.420843	0.099602	0.325815	1484.282227
9070.421742	0.100745	0.325815	1574.851685
9070.422663	0.101470	0.325815	1668.305298
9070.423567	0.100653	0.325815	1759.295654
9070.424501	0.099895	0.325815	1852.597656
9070.425406	0.103308	0.325815	1946.091553
9070.426304	0.099866	0.325815	2035.770996
9070.427252	0.099166	0.325815	2129.780518
9071.444435	0.701019	0.330355	309.149506
9071.445340	0.254502	0.330355	539.473755
9071.446233	0.249342	0.330355	762.136230
9071.447201	0.491862	0.330355	1238.258301
9071.448106	0.100298	0.330355	1329.027832
9071.449004	0.102213	0.330355	1420.815186
9071.449928	0.100203	0.330355	1513.402466
9071.450834	0.099331	0.330355	1603.396362
9071.451736	0.101473	0.330355	1694.925293
9071.452624	0.101331	0.330355	1784.906860
9071.453574	0.098998	0.330355	1878.954834
9071.454466	0.099470	0.330355	1967.682251
9071.455372	0.101788	0.330355	2059.902588
9071.456263	0.100327	0.330355	2149.294189
9072.434656	0.684419	0.305745	314.148315
9072.435551	0.255132	0.305745	542.491333
9072.436493	0.249404	0.305745	777.430176
9072.437415	0.492733	0.305745	1231.730225
9072.438313	0.101290	0.305745	1322.688965
9072.439200	0.102557	0.305745	1413.657349
9072.440141	0.099792	0.305745	1507.562012
9072.441045	0.100540	0.305745	1598.449707
9072.441949	0.101700	0.305745	1690.386963
9072.442838	0.101312	0.305745	1780.453613
9072.443783	0.099353	0.305745	1874.342163
9072.444697	0.101345	0.305745	1966.971680
9072.445587	0.101602	0.305745	2057.396973
9072.446525	0.099335	0.305745	2150.572998
9073.484247	0.686657	0.314108	308.308777
9073.485150	0.254934	0.314108	538.514282
9073.486044	0.249426	0.314108	761.501343
9073.487022	0.491188	0.314108	1241.882935
9073.487935	0.100840	0.314108	1333.949707
9073.488835	0.102598	0.314108	1426.287598
9073.489760	0.100162	0.314108	1518.937744
9073.490672	0.099521	0.314108	1609.701294
9073.491577	0.101415	0.314108	1701.481689
9073.492467	0.101481	0.314108	1791.799561
9073.493405	0.099412	0.314108	1885.047607
9073.494312	0.100294	0.314108	1976.014404
9073.495218	0.101492	0.314108	2067.965820
9073.496109	0.100437	0.314108	2157.455078
9074.475461	0.733524	0.326213	319.083038
9074.476416	0.254861	0.326213	562.475159
9074.477332	0.248917	0.326213	790.483337
9074.478242	0.483970	0.326213	1230.895752
9074.479128	0.100624	0.326213	1320.048462
9074.480072	0.099708	0.326213	1414.173096
9074.480982	0.100291	0.326213	1505.437500
9074.481882	0.101964	0.326213	1597.205200
9074.482807	0.100441	0.326213	1690.112793
9074.483726	0.099210	0.326213	1781.286987
9074.484632	0.100525	0.326213	1872.362549
9074.485523	0.100803	0.326213	1962.178223
9074.486460	0.098979	0.326213	2054.922119
9074.487365	0.098976	0.326213	2144.495361
9075.511763	0.718861	0.320453	319.893158
9075.512661	0.254615	0.320453	548.537842
9075.513606	0.249247	0.320453	784.076050
9075.514541	0.485310	0.320453	1237.840942
9075.515449	0.100609	0.320453	1329.194092
9075.516341	0.102136	0.320453	1420.299561
9075.517285	0.099818	0.320453	1514.527832
9075.518197	0.101129	0.320453	1606.757568
9075.519123	0.101331	0.320453	1700.589722
9075.520009	0.100942	0.320453	1790.024658
9075.520963	0.099972	0.320453	1885.397827
9075.521859	0.101060	0.320453	1975.947144
9075.522749	0.101543	0.320453	2066.320312
9075.523689	0.100605	0.320453	2160.889404
9076.517324	0.714686	0.334874	315.891327
9076.518229	0.255300	0.334874	546.938110
9076.519124	0.250085	0.334874	770.764587
9076.520085	0.495916	0.334874	1247.339355
9076.520992	0.099814	0.334874	1337.871094
9076.521883	0.102239	0.334874	1428.965820
9076.522825	0.099891	0.334874	1523.063477
9076.523726	0.099540	0.334874	1612.748779
9076.524627	0.102034	0.334874	1704.681152
9076.525519	0.101085	0.334874	1794.849121
9076.526460	0.099261	0.334874	1888.254150
9076.527364	0.099932	0.334874	1978.592285
9076.528271	0.102250	0.334874	2071.332764
9076.529184	0.100334	0.334874	2162.938232
9077.544437	0.692476	0.319704	324.078583
9077.545348	0.254583	0.319704	556.003296
9077.546245	0.248928	0.319704	779.291931
9077.547206	0.453911	0.319704	1215.500488
9077.548100	0.101129	0.319704	1305.909912
9077.549019	0.103209	0.319704	1400.759155
9077.549920	0.100507	0.319704	1491.315552
9077.550879	0.100587	0.319704	1587.778687
9077.551780	0.100646	0.319704	1678.460449
9077.552672	0.102228	0.319704	1769.647583
9077.553600	0.099675	0.319704	1862.146240
9077.554517	0.101082	0.319704	1954.838013
9077.555431	0.100873	0.319704	2047.035767
9077.556320	0.100507	0.319704	2136.386230
9078.555082	0.714221	0.332099	312.828888
9078.556025	0.255465	0.332099	553.732422
9078.556945	0.249364	0.332099	783.147339
9078.557862	0.481926	0.332099	1225.073730
9078.558751	0.100078	0.332099	1314.043213
9078.559711	0.099822	0.332099	1409.872070
9078.560616	0.100697	0.332099	1501.002930
9078.561511	0.102411	0.332099	1592.660645
9078.562443	0.100583	0.332099	1686.404419
9078.563348	0.099375	0.332099	1776.338745
9078.564256	0.101213	0.332099	1868.240479
9078.565156	0.100854	0.332099	1959.009521
9078.566078	0.098877	0.332099	2050.174072
9078.566983	0.099152	0.332099	2139.906250
9079.583243	0.720308	0.308610	359.433472
9079.584152	0.255007	0.308610	591.235107
9079.585084	0.248544	0.308610	822.877808
9079.585983	0.486061	0.308610	1259.846436
9079.586931	0.099174	0.308610	1353.863037
9079.587835	0.101393	0.308610	1445.522217
9079.588745	0.101865	0.308610	1538.219604
9079.589642	0.101799	0.308610	1629.533569
9079.590591	0.100609	0.308610	1725.011597
9079.591495	0.102502	0.308610	1817.673828
9079.592383	0.101305	0.308610	1907.632568
9079.593328	0.099910	0.308610	2002.047241
9079.594239	0.100682	0.308610	2093.768799
9079.595151	0.101265	0.308610	2186.122070
9080.584650	0.728331	0.335894	316.824127
9080.585591	0.255139	0.335894	556.910095
9080.586507	0.249331	0.335894	785.297363
9080.587413	0.487668	0.335894	1227.125000
9080.588305	0.100353	0.335894	1316.639648
9080.589272	0.099587	0.335894	1412.940674
9080.590171	0.100587	0.335894	1503.368530
9080.591071	0.101920	0.335894	1595.096680
9080.591957	0.101151	0.335894	1684.716553
9080.592888	0.099587	0.335894	1777.432373
9080.593798	0.100426	0.335894	1868.820068
9080.594698	0.101825	0.335894	1960.462524
9080.595625	0.099869	0.335894	2053.041504
9080.596537	0.099174	0.335894	2143.487793
9081.621962	0.728320	0.298531	316.819336
9081.622914	0.255037	0.298531	559.614197
9081.623839	0.248914	0.298531	789.859253
9081.624749	0.487137	0.298531	1233.154297
9081.625636	0.100214	0.298531	1322.043823
9081.626602	0.100184	0.298531	1418.821899
9081.627497	0.102217	0.298531	1510.305908
9081.628385	0.103312	0.298531	1602.046753
9081.629312	0.100459	0.298531	1695.172241
9081.630229	0.100148	0.298531	1787.007690
9081.631132	0.101407	0.298531	1878.578613
9081.632022	0.100562	0.298531	1968.078369
9081.632963	0.099042	0.298531	2061.276611
9081.633867	0.100397	0.298531	2152.035156
9082.609110	0.690249	0.336030	303.019318
9082.610022	0.255004	0.336030	535.582642
9082.610941	0.249543	0.336030	764.913086
9082.611840	0.436392	0.336030	1157.229126
9082.612803	0.099122	0.336030	1252.683960
9082.613716	0.102070	0.336030	1345.874146
9082.614608	0.103224	0.336030	1437.949829
9082.615541	0.099587	0.336030	1530.864868
9082.616440	0.099258	0.336030	1620.097656
9082.617342	0.101521	0.336030	1711.669556
9082.618233	0.101217	0.336030	1801.853882
9082.619173	0.098947	0.336030	1894.863647
9082.620079	0.100258	0.336030	1985.697021
9082.620982	0.100613	0.336030	2076.550293
9083.661778	0.704487	0.310785	312.087860
9083.662732	0.255242	0.310785	555.588440
9083.663654	0.248866	0.310785	785.042847
9083.664565	0.489657	0.310785	1231.120361
9083.665498	0.099452	0.310785	1323.908936
9083.666398	0.099620	0.310785	1413.567261
9083.667301	0.102217	0.310785	1505.869019
9083.668186	0.101865	0.310785	1596.019775
9083.669133	0.099188	0.310785	1689.951050
9083.670038	0.099983	0.310785	1780.435547
9083.670934	0.101547	0.310785	1871.421387
9083.671853	0.100236	0.310785	1963.537842
9083.672772	0.098899	0.310785	2054.426025
9083.673681	0.100382	0.310785	2145.673340
9084.646871	0.672803	0.307389	302.088409
9084.647775	0.255007	0.307389	532.614990
9084.648717	0.249408	0.307389	767.557312
9084.649641	0.486779	0.307389	1217.340698
9084.650538	0.101096	0.307389	1308.023926
9084.651426	0.101364	0.307389	1398.034790
9084.652374	0.099518	0.307389	1492.377686
9084.653282	0.099961	0.307389	1583.142212
9084.654178	0.102162	0.307389	1674.679199
9084.655095	0.101019	0.307389	1767.313843
9084.656020	0.099097	0.307389	1858.978271
9084.656932	0.101016	0.307389	1951.104492
9084.657831	0.101257	0.307389	2042.134766
9084.658760	0.099547	0.307389	2134.614014
9085.680108	0.618556	0.338596	293.195496
9085.681011	0.255227	0.338596	523.665527
9085.681945	0.249045	0.338596	756.273926
9085.682872	0.486456	0.338596	1207.218994
9085.683775	0.102213	0.338596	1299.517456
9085.684664	0.100968	0.338596	1389.278076
9085.685607	0.099408	0.338596	1483.019775
9085.686503	0.100126	0.338596	1572.732422
9085.687403	0.102059	0.338596	1664.585815
9085.688329	0.100459	0.338596	1757.610840
9085.689247	0.099060	0.338596	1848.547974
9085.690158	0.101166	0.338596	1940.709961
9085.691055	0.101100	0.338596	2031.396484
9085.691993	0.099412	0.338596	2124.644531
9086.703075	0.687759	0.318310	312.242462
9086.703973	0.255143	0.318310	541.360718
9086.704868	0.249884	0.318310	765.006897
9086.705822	0.407842	0.318310	1154.088013
9086.706739	0.100441	0.318310	1246.192139
9086.707646	0.101525	0.318310	1338.275024
9086.708540	0.101711	0.318310	1429.205078
9086.709476	0.099774	0.318310	1522.593750
9086.710387	0.100884	0.318310	1614.498901
9086.711308	0.101935	0.318310	1708.380859
9086.712198	0.100756	0.318310	1798.053345
9086.713155	0.100360	0.318310	1894.097900
9086.714052	0.101305	0.318310	1984.968384
9086.714947	0.102180	0.318310	2076.419678
9087.705554	0.690846	0.323994	305.353912
9087.706476	0.255125	0.323994	540.578735
9087.707379	0.249932	0.323994	766.267029
9087.708337	0.484083	0.323994	1230.018799
9087.709234	0.098723	0.323994	1318.573486
9087.710134	0.101862	0.323994	1410.248901
9087.711021	0.102147	0.323994	1500.853516
9087.711963	0.099760	0.323994	1594.827026
9087.712869	0.100532	0.323994	1685.909180
9087.713774	0.102085	0.323994	1778.296021
9087.714663	0.100726	0.323994	1867.841675
9087.715618	0.099218	0.323994	1962.594360
9087.716529	0.099829	0.323994	2053.538574
9087.717424	0.101415	0.323994	2144.304932
9088.727500	0.719634	0.333223	313.760345
9088.728425	0.254843	0.333223	549.489685
9088.729355	0.249302	0.333223	781.340332
9088.730259	0.488042	0.333223	1222.530273
9088.731148	0.101320	0.333223	1312.603394
9088.732088	0.100045	0.333223	1406.645874
9088.733001	0.100232	0.333223	1498.157593
9088.733903	0.101433	0.333223	1589.650269
9088.734790	0.100994	0.333223	1679.231689
9088.735745	0.098976	0.333223	1773.753662
9088.736645	0.102297	0.333223	1865.821289
9088.737537	0.100950	0.333223	1955.868408
9088.738483	0.098903	0.333223	2049.430176
9088.739381	0.098965	0.333223	2138.300537
9089.766865	0.714452	0.322882	315.073303
9089.767759	0.254780	0.322882	542.846863
9089.768714	0.248987	0.322882	780.629272
9089.769646	0.482802	0.322882	1230.600342
9089.770547	0.101202	0.322882	1321.783691
9089.771481	0.100034	0.322882	1415.215576
9089.772388	0.099719	0.322882	1505.660889
9089.773296	0.101792	0.322882	1598.088013
9089.774185	0.100730	0.322882	1687.636963
9089.775142	0.099510	0.322882	1782.868530
9089.776052	0.100411	0.322882	1874.242920
9089.776953	0.101781	0.322882	1965.947632
9089.777866	0.100210	0.322882	2057.439453
9089.778800	0.099155	0.322882	2150.050537
9090.752989	0.678190	0.312517	307.898132
9090.753884	0.254843	0.312517	535.982178
9090.754825	0.249342	0.312517	770.613037
9090.755753	0.482662	0.312517	1218.523682
9090.756654	0.101785	0.312517	1310.231689
9090.757543	0.100463	0.312517	1399.542969
9090.758493	0.099811	0.312517	1494.363159
9090.759402	0.100170	0.312517	1585.417358
9090.760301	0.101305	0.312517	1676.490479
9090.761235	0.100426	0.312517	1770.288330
9090.762139	0.099467	0.312517	1860.206055
9090.763045	0.101851	0.312517	1952.482666
9090.763935	0.102261	0.312517	2043.494751
9090.764877	0.099269	0.312517	2137.005859
9091.786202	0.691798	0.336739	306.466553
9091.787107	0.255132	0.336739	537.360840
9091.788003	0.249979	0.336739	761.342285
9091.788967	0.486951	0.336739	1230.762695
9091.789888	0.100968	0.336739	1323.754272
9091.790807	0.101151	0.336739	1416.712158
9091.791694	0.101034	0.336739	1506.329224
9091.792662	0.100547	0.336739	1603.658569
9091.793557	0.101462	0.336739	1694.467407
9091.794447	0.102898	0.336739	1786.046631
9091.795399	0.099800	0.336739	1881.056030
9091.796296	0.100170	0.336739	1970.908203
9091.797214	0.101111	0.336739	2063.728027
9091.798110	0.100924	0.336739	2154.156006
9092.815314	0.692369	0.321903	306.719635
9092.816219	0.254985	0.321903	537.481323
9092.817114	0.249932	0.321903	761.170166
9092.818096	0.489229	0.321903	1241.592529
9092.818996	0.099060	0.321903	1330.746582
9092.819895	0.100968	0.321903	1421.516846
9092.820780	0.100181	0.321903	1510.176758
9092.821714	0.099390	0.321903	1603.006714
9092.822621	0.100869	0.321903	1694.494995
9092.823515	0.101660	0.321903	1785.379150
9092.824455	0.099668	0.321903	1879.067017
9092.825361	0.098972	0.321903	1968.735840
9092.826261	0.102272	0.321903	2060.780273
9092.827153	0.101071	0.321903	2150.935303
9093.824992	0.682438	0.301266	305.049652
9093.825929	0.254817	0.301266	543.813110
9093.826828	0.248873	0.301266	767.550171
9093.827788	0.483918	0.301266	1232.111816
9093.828689	0.098987	0.301266	1321.298950
9093.829588	0.103876	0.301266	1414.683228
9093.830477	0.101777	0.301266	1505.163330
9093.831424	0.099708	0.301266	1599.587036
9093.832325	0.100653	0.301266	1690.275513
9093.833217	0.101250	0.301266	1780.590576
9093.834122	0.100269	0.301266	1871.333618
9093.835050	0.099075	0.301266	1963.274902
9093.835955	0.101016	0.301266	2054.694092
9093.836848	0.101162	0.301266	2145.031738
9094.822376	0.649157	0.327929	300.559479
9094.823281	0.254550	0.327929	530.926819
9094.824180	0.249108	0.327929	754.874634
9094.825157	0.412152	0.327929	1157.547241
9094.826054	0.100382	0.327929	1247.589966
9094.826978	0.101949	0.327929	1341.791260
9094.827877	0.102187	0.327929	1433.657837
9094.828811	0.100199	0.327929	1527.243652
9094.829723	0.101224	0.327929	1619.560303
9094.830638	0.101232	0.327929	1712.187256
9094.831525	0.100609	0.327929	1801.427612
9094.832480	0.100118	0.327929	1897.040649
9094.833378	0.101605	0.327929	1988.282104
9094.834267	0.100690	0.327929	2077.795166
9095.868886	0.693549	0.331164	310.709778
9095.869782	0.255092	0.331164	539.271790
9095.870724	0.249481	0.331164	774.283081
9095.871645	0.487617	0.331164	1223.378540
9095.872531	0.100353	0.331164	1312.291138
9095.873420	0.102638	0.331164	1403.536255
9095.874351	0.099470	0.331164	1496.143066
9095.875265	0.099763	0.331164	1587.326660
9095.876170	0.101429	0.331164	1679.120361
9095.877059	0.100723	0.331164	1768.662842
9095.878019	0.099298	0.331164	1863.989014
9095.878918	0.100415	0.331164	1954.262085
9095.879811	0.101752	0.331164	2045.126343
9095.880762	0.100419	0.331164	2140.624512
9096.880635	0.729463	0.304799	354.518951
9096.881555	0.255447	0.304799	589.530029
9096.882463	0.248947	0.304799	815.573486
9096.883365	0.476635	0.304799	1245.497803
9096.884306	0.098928	0.304799	1338.589233
9096.885215	0.099910	0.304799	1429.407104
9096.886122	0.101188	0.304799	1521.184326
9096.887008	0.101499	0.304799	1611.112427
9096.887945	0.099141	0.304799	1704.007202
9096.888851	0.100734	0.304799	1795.271851
9096.889738	0.101803	0.304799	1885.571045
9096.890676	0.099979	0.304799	1979.351562
9096.891587	0.098804	0.304799	2069.361816
9096.892481	0.101400	0.304799	2160.013428
9097.883080	0.733099	0.324667	318.898224
9097.884035	0.254641	0.324667	562.080505
9097.884942	0.248968	0.324667	787.894897
9097.885850	0.485962	0.324667	1229.148315
9097.886738	0.101613	0.324667	1319.380249
9097.887674	0.099547	0.324667	1412.556396
9097.888579	0.100111	0.324667	1503.156982
9097.889478	0.102894	0.324667	1595.658936
9097.890386	0.100763	0.324667	1687.151733
9097.891314	0.099042	0.324667	1779.062500
9097.892226	0.100419	0.324667	1870.644409
9097.893121	0.101693	0.324667	1961.659790
9097.894055	0.099690	0.324667	2054.770264
9097.894951	0.099009	0.324667	2143.482178
9098.897897	0.617959	0.354359	288.586823
9098.898818	0.254846	0.354359	523.300171
9098.899719	0.248954	0.354359	747.607605
9098.900678	0.480125	0.354359	1208.046997
9098.901582	0.099042	0.354359	1297.580688
9098.902484	0.101898	0.354359	1389.492920
9098.903371	0.101708	0.354359	1479.707764
9098.904302	0.099210	0.354359	1572.072510
9098.905205	0.099814	0.354359	1662.204956
9098.906101	0.100386	0.354359	1752.150635
9098.907020	0.099595	0.354359	1843.678223
9098.907926	0.098800	0.354359	1933.191040
9098.908837	0.100671	0.354359	2024.902710
9098.909734	0.100605	0.354359	2115.145752
9099.945428	0.677772	0.305745	304.319733
9099.946329	0.254517	0.305745	533.639160
9099.947227	0.249496	0.305745	757.686462
9099.948245	0.484530	0.305745	1250.937988
9099.949149	0.100393	0.305745	1341.693359
9099.950070	0.102488	0.305745	1436.084595
9099.950959	0.101821	0.305745	1526.603760
9099.951924	0.100430	0.305745	1623.518433
9099.952821	0.101232	0.305745	1714.323242
9099.953707	0.101583	0.305745	1804.326050
9099.954628	0.099155	0.305745	1895.648071
9099.955533	0.100624	0.305745	1986.712646
9099.956449	0.103125	0.305745	2081.175049
9099.957344	0.101243	0.305745	2171.787354
9100.939726	0.714514	0.316525	316.529755
9100.940680	0.255458	0.316525	560.236450
9100.941605	0.248950	0.316525	790.515381
9100.942513	0.484841	0.316525	1230.751221
9100.943424	0.099617	0.316525	1321.502075
9100.944358	0.099869	0.316525	1414.780029
9100.945269	0.102070	0.316525	1507.766113
9100.946161	0.101895	0.316525	1598.656006
9100.947105	0.099833	0.316525	1692.898193
9100.948008	0.099661	0.316525	1782.891724
9100.948903	0.101375	0.316525	1873.621948
9100.949793	0.100994	0.316525	1963.506348
9100.950724	0.099097	0.316525	2055.765381
9100.951630	0.100250	0.316525	2146.592041
9101.952479	0.687074	0.339716	309.183289
9101.953376	0.255070	0.339716	537.980713
9101.954337	0.249196	0.339716	777.457642
9101.955272	0.476620	0.339716	1223.097168
9101.956174	0.100580	0.339716	1313.820190
9101.957063	0.100653	0.339716	1403.300781
9101.958013	0.099657	0.339716	1497.974854
9101.958919	0.102100	0.339716	1590.477051
9101.959810	0.100935	0.339716	1680.410156
9101.960740	0.099500	0.339716	1772.944702
9101.961656	0.100463	0.339716	1864.968506
9101.962559	0.101323	0.339716	1956.463379
9101.963448	0.100404	0.339716	2045.722534
9101.964394	0.098990	0.339716	2139.367432
9102.980590	0.673220	0.336518	310.354523
9102.981500	0.255044	0.336518	542.444519
9102.982406	0.249104	0.336518	768.132751
9102.983360	0.442449	0.336518	1190.228760
9102.984268	0.099086	0.336518	1280.198608
9102.985167	0.101389	0.336518	1371.347412
9102.986056	0.102026	0.336518	1462.048828
9102.986997	0.099430	0.336518	1555.612427
9102.987896	0.099723	0.336518	1645.263306
9102.988796	0.102704	0.336518	1737.696777
9102.989680	0.100763	0.336518	1826.771240
9102.990629	0.098903	0.336518	1920.629761
9102.991525	0.100334	0.336518	2010.529419
9102.992422	0.100759	0.336518	2100.910400
9104.009672	0.705992	0.307296	309.224670
9104.010645	0.255154	0.307296	557.489319
9104.011565	0.248507	0.307296	786.115845
9104.012472	0.480593	0.307296	1222.013916
9104.013411	0.099518	0.307296	1315.461182
9104.014316	0.100162	0.307296	1406.108154
9104.015218	0.102521	0.307296	1498.581909
9104.016106	0.101422	0.307296	1588.644775
9104.017055	0.099631	0.307296	1683.194946
9104.017951	0.099760	0.307296	1772.579468
9104.018847	0.101356	0.307296	1863.394653
9104.019745	0.100345	0.307296	1953.504883
9104.020682	0.098950	0.307296	2046.221191
9104.021587	0.100902	0.307296	2137.537598
9104.997847	0.689385	0.323704	306.086823
9104.998757	0.254495	0.323704	537.676941
9104.999677	0.249016	0.323704	766.771790
9105.000631	0.481370	0.323704	1225.998413
9105.001542	0.100778	0.323704	1317.806763
9105.002440	0.101927	0.323704	1409.337646
9105.003387	0.099807	0.323704	1503.854980
9105.004283	0.099565	0.323704	1593.065552
9105.005181	0.101140	0.323704	1683.889404
9105.006065	0.100869	0.323704	1773.057739
9105.006999	0.098932	0.323704	1865.460083
9105.007906	0.099803	0.323704	1955.981812
9105.008804	0.100851	0.323704	2046.545898
9105.009720	0.100067	0.323704	2138.207520
9106.035146	0.718539	0.328735	313.282928
9106.036043	0.254861	0.328735	541.893127
9106.037012	0.249185	0.328735	783.352966
9106.037933	0.479377	0.328735	1224.859619
9106.038835	0.101539	0.328735	1316.448120
9106.039765	0.100137	0.328735	1409.575317
9106.040666	0.099232	0.328735	1498.983521
9106.041563	0.101876	0.328735	1590.366455
9106.042452	0.101884	0.328735	1680.940918
9106.043387	0.099166	0.328735	1773.661377
9106.044290	0.099507	0.328735	1863.516113
9106.045193	0.101678	0.328735	1955.331787
9106.046084	0.101393	0.328735	2045.672852
9106.047038	0.098943	0.328735	2140.064453
9107.057102	0.704714	0.304255	312.893188
9107.058092	0.255425	0.304255	565.763794
9107.058999	0.248456	0.304255	791.113220
9107.059938	0.481842	0.304255	1243.562866
9107.060842	0.100225	0.304255	1334.165894
9107.061786	0.101616	0.304255	1430.091553
9107.062696	0.101682	0.304255	1522.622314
9107.063594	0.103070	0.304255	1615.179199
9107.064528	0.101602	0.304255	1710.075073
9107.065437	0.101096	0.304255	1801.971558
9107.066358	0.100181	0.304255	1894.237915
9107.067252	0.100620	0.304255	1984.192261
9107.068205	0.101620	0.304255	2081.035889
9107.069127	0.101576	0.304255	2174.688965
9108.060619	0.691531	0.317504	302.890472
9108.061517	0.254469	0.317504	531.403625
9108.062415	0.249631	0.317504	755.572571
9108.063399	0.484259	0.317504	1232.083496
9108.064307	0.099976	0.317504	1322.861328
9108.065205	0.101766	0.317504	1414.247559
9108.066149	0.100569	0.317504	1509.184570
9108.067054	0.099521	0.317504	1599.251465
9108.067962	0.101213	0.317504	1691.153198
9108.068854	0.101400	0.317504	1781.602173
9108.069797	0.099280	0.317504	1875.223022
9108.070704	0.099639	0.317504	1965.595337
9108.071612	0.102092	0.317504	2058.295166
9108.072496	0.100254	0.317504	2146.919678
9109.081556	0.691567	0.328022	307.747467
9109.082458	0.254817	0.328022	537.592285
9109.083353	0.249902	0.328022	761.254883
9109.084322	0.487584	0.328022	1233.723999
9109.085225	0.100430	0.328022	1324.411987
9109.086142	0.102114	0.328022	1418.050781
9109.087039	0.102041	0.328022	1509.581543
9109.087975	0.101067	0.328022	1604.180176
9109.088901	0.100712	0.328022	1697.439209
9109.089793	0.100862	0.328022	1787.407959
9109.090718	0.100342	0.328022	1880.224121
9109.091632	0.100375	0.328022	1971.966675
9109.092558	0.100825	0.328022	2065.330811
9109.093446	0.101279	0.328022	2155.266846
9110.115791	0.705601	0.299699	311.875488
9110.116757	0.255256	0.299699	558.453125
9110.117680	0.248551	0.299699	787.865723
9110.118578	0.488269	0.299699	1226.331299
9110.119523	0.099364	0.299699	1320.230347
9110.120420	0.099789	0.299699	1409.740967
9110.121327	0.101920	0.299699	1502.182617
9110.122220	0.101737	0.299699	1593.033813
9110.123174	0.099287	0.299699	1687.753662
9110.124080	0.100133	0.299699	1778.474243
9110.124980	0.101624	0.299699	1869.935425
9110.125907	0.099529	0.299699	1962.198608
9110.126820	0.098804	0.299699	2052.406494
9110.127726	0.101323	0.299699	2144.205322
9111.103965	0.678538	0.330359	304.663391
9111.104868	0.254509	0.330359	534.485291
9111.105766	0.249327	0.330359	758.381287
9111.106716	0.419974	0.330359	1157.356934
9111.107640	0.099752	0.330359	1249.527954
9111.108542	0.101968	0.330359	1341.502930
9111.109430	0.102418	0.330359	1432.450317
9111.110368	0.099518	0.330359	1525.798096
9111.111280	0.100781	0.330359	1617.710571
9111.112206	0.101049	0.330359	1711.281494
9111.113093	0.100309	0.330359	1800.255493
9111.114049	0.100649	0.330359	1896.476318
9111.114951	0.101173	0.330359	1987.734497
9111.115842	0.101052	0.330359	2077.771973
9112.153556	0.686693	0.317842	307.638519
9112.154458	0.255275	0.317842	537.896240
9112.155352	0.250067	0.317842	761.456299
9112.156321	0.486738	0.317842	1233.105713
9112.157237	0.100074	0.317842	1324.773926
9112.158130	0.102030	0.317842	1415.886719
9112.159058	0.100415	0.317842	1509.071899
9112.159968	0.099368	0.317842	1599.496460
9112.160880	0.102627	0.317842	1693.092285
9112.161784	0.101202	0.317842	1784.579224
9112.162711	0.099166	0.317842	1876.506348
9112.163619	0.099276	0.317842	1966.649048
9112.164519	0.101342	0.317842	2057.856445
9112.165407	0.100012	0.317842	2146.667236
9113.148876	0.728390	0.316715	320.491577
9113.149838	0.255385	0.316715	566.171509
9113.150763	0.248551	0.316715	796.081177
9113.151673	0.469805	0.316715	1223.603394
9113.152574	0.099968	0.316715	1313.674805
9113.153513	0.099789	0.316715	1407.376465
9113.154407	0.101257	0.316715	1497.900513
9113.155296	0.101027	0.316715	1587.713135
9113.156231	0.099712	0.316715	1680.943726
9113.157148	0.100034	0.316715	1772.675049
9113.158050	0.101085	0.316715	1863.853882
9113.158939	0.100415	0.316715	1953.122803
9113.159895	0.098917	0.316715	2047.687622
9113.160794	0.100129	0.316715	2137.703857
9114.174930	0.700470	0.334024	313.110077
9114.175911	0.255604	0.334024	563.857849
9114.176823	0.249049	0.334024	790.990601
9114.177732	0.486669	0.334024	1233.372437
9114.178619	0.100704	0.334024	1322.697144
9114.179553	0.099686	0.334024	1415.804077
9114.180462	0.100968	0.334024	1507.583984
9114.181360	0.102931	0.334024	1600.015991
9114.182302	0.100444	0.334024	1694.634521
9114.183212	0.099587	0.334024	1785.259033
9114.184116	0.101635	0.334024	1877.136597
9114.185004	0.101272	0.334024	1967.066162
9114.185954	0.099174	0.334024	2061.281006
9114.186850	0.099836	0.334024	2150.734375
9115.194818	0.732261	0.312219	315.604370
9115.195782	0.254729	0.312219	561.163147
9115.196699	0.248602	0.312219	789.131470
9115.197615	0.484988	0.312219	1233.380249
9115.198499	0.100847	0.312219	1322.529175
9115.199469	0.099873	0.312219	1419.406006
9115.200376	0.101265	0.312219	1511.253052
9115.201273	0.102345	0.312219	1603.056519
9115.202199	0.100594	0.312219	1696.207031
9115.203103	0.099587	0.312219	1786.234009
9115.203999	0.100979	0.312219	1876.711182
9115.204885	0.100891	0.312219	1966.100708
9115.205814	0.099005	0.312219	2058.076416
9115.206720	0.099481	0.312219	2148.206299
9116.204493	0.705839	0.337368	308.451477
9116.205445	0.254641	0.337368	550.869812
9116.206358	0.248822	0.337368	778.044312
9116.207266	0.481952	0.337368	1215.656616
9116.208150	0.100320	0.337368	1304.339355
9116.209097	0.099514	0.337368	1398.579224
9116.209999	0.100258	0.337368	1489.011597
9116.210908	0.101287	0.337368	1581.081177
9116.211798	0.100737	0.337368	1670.737427
9116.212744	0.099174	0.337368	1764.555664
9116.213652	0.100726	0.337368	1856.015137
9116.214549	0.100961	0.337368	1946.576904
9116.215491	0.099683	0.337368	2040.477905
9116.216393	0.098972	0.337368	2129.750732
9117.233628	0.677845	0.316606	303.674774
9117.234526	0.254740	0.316606	532.431274
9117.235481	0.248903	0.316606	770.133240
9117.236398	0.479330	0.316606	1209.678711
9117.237299	0.101060	0.316606	1300.733398
9117.238185	0.101349	0.316606	1390.528564
9117.239132	0.099595	0.316606	1484.844727
9117.240037	0.100642	0.316606	1575.925781
9117.240935	0.102231	0.316606	1667.729614
9117.241855	0.100800	0.316606	1760.465210
9117.242765	0.098990	0.316606	1850.546509
9117.243671	0.101016	0.316606	1942.066650
9117.244564	0.101027	0.316606	2032.283447
9117.245502	0.099060	0.316606	2125.201660
9118.237141	0.719524	0.339386	320.188141
9118.238045	0.254689	0.339386	550.426758
9118.238941	0.249412	0.339386	773.899597
9118.239904	0.480927	0.339386	1237.031860
9118.240801	0.100825	0.339386	1327.472046
9118.241686	0.102733	0.339386	1418.390869
9118.242612	0.101620	0.339386	1512.490845
9118.243538	0.100964	0.339386	1605.983887
9118.244451	0.101268	0.339386	1698.441895
9118.245343	0.101382	0.339386	1788.874512
9118.246273	0.099155	0.339386	1881.088867
9118.247186	0.101375	0.339386	1973.643799
9118.248101	0.101525	0.339386	2066.538818
9118.248989	0.100723	0.339386	2155.980469
9119.268356	0.725039	0.323784	359.619385
9119.269271	0.255557	0.323784	593.453735
9119.270181	0.248888	0.323784	819.941772
9119.271085	0.472592	0.323784	1247.164551
9119.272021	0.098899	0.323784	1339.733887
9119.272917	0.099847	0.323784	1429.197144
9119.273817	0.102034	0.323784	1521.027466
9119.274709	0.100587	0.323784	1610.751221
9119.275664	0.099210	0.323784	1705.496948
9119.276572	0.099847	0.323784	1796.158447
9119.277476	0.101411	0.323784	1887.834106
9119.278403	0.099968	0.323784	1980.504639
9119.279306	0.098950	0.323784	2069.856689
9119.280201	0.101093	0.323784	2160.334473
9120.272848	0.704791	0.348433	310.812927
9120.273754	0.254674	0.348433	541.547607
9120.274645	0.249441	0.348433	763.799438
9120.275613	0.487090	0.348433	1235.302490
9120.276518	0.099844	0.348433	1325.661133
9120.277413	0.101887	0.348433	1416.850220
9120.278349	0.100679	0.348433	1511.085449
9120.279239	0.099133	0.348433	1599.314087
9120.280135	0.101543	0.348433	1690.296631
9120.281027	0.101118	0.348433	1780.494019
9120.281969	0.099258	0.348433	1873.994873
9120.282877	0.099467	0.348433	1964.310547
9120.283786	0.101682	0.348433	2056.739502
9120.284674	0.101437	0.348433	2146.815430
9121.301979	0.659187	0.325041	295.974976
9121.302892	0.255000	0.325041	528.789978
9121.303797	0.249485	0.325041	754.573792
9121.304720	0.396313	0.325041	1120.371094
9121.305658	0.098983	0.325041	1213.217285
9121.306571	0.100756	0.325041	1305.207153
9121.307459	0.102546	0.325041	1396.268311
9121.308397	0.099781	0.325041	1489.863403
9121.309300	0.099760	0.325041	1579.946289
9121.310204	0.101624	0.325041	1671.813965
9121.311094	0.100712	0.325041	1761.447388
9121.312057	0.098979	0.325041	1856.764648
9121.312956	0.099514	0.325041	1946.227905
9121.313846	0.100518	0.325041	2035.688599
9122.309586	0.705099	0.345251	310.948608
9122.310494	0.255128	0.345251	542.604980
9122.311451	0.249393	0.345251	781.274414
9122.312377	0.485504	0.345251	1230.851318
9122.313280	0.101418	0.345251	1322.432129
9122.314168	0.101785	0.345251	1412.816895
9122.315109	0.099686	0.345251	1506.621704
9122.316009	0.099738	0.345251	1596.385498
9122.316906	0.101986	0.345251	1687.867065
9122.317792	0.100822	0.345251	1777.194946
9122.318729	0.099258	0.345251	1870.199463
9122.319637	0.100891	0.345251	1961.808594
9122.320537	0.101210	0.345251	2052.897461
9122.321469	0.099437	0.345251	2145.572998
9123.332555	0.709435	0.321774	310.732452
9123.333457	0.254894	0.321774	540.646606
9123.334352	0.249792	0.321774	764.210876
9123.335318	0.478022	0.321774	1225.980591
9123.336229	0.100378	0.321774	1317.425293
9123.337119	0.101993	0.321774	1408.199463
9123.338048	0.100580	0.321774	1501.638184
9123.338964	0.099727	0.321774	1592.987671
9123.339865	0.102839	0.321774	1685.645996
9123.340756	0.101422	0.321774	1776.013062
9123.341697	0.099115	0.321774	1869.280273
9123.342604	0.099276	0.321774	1959.323730
9123.343511	0.100518	0.321774	2050.493164
9123.344396	0.100096	0.321774	2139.078613
9124.351497	0.558483	0.342097	278.682861
9124.352400	0.255165	0.342097	509.096680
9124.353311	0.248822	0.342097	735.773560
9124.354212	0.487357	0.342097	1174.882324
9124.355168	0.099067	0.342097	1269.590698
9124.356076	0.100756	0.342097	1361.076782
9124.356975	0.101671	0.342097	1452.479126
9124.357900	0.100118	0.342097	1545.088623
9124.358796	0.099353	0.342097	1634.108887
9124.359693	0.101107	0.342097	1724.802002
9124.360582	0.101986	0.342097	1815.467651
9124.361535	0.098789	0.342097	1909.613647
9124.362431	0.098906	0.342097	1998.233643
9124.363334	0.101082	0.342097	2089.510254
9125.361150	0.720974	0.336107	353.277313
9125.362084	0.255732	0.336107	592.131409
9125.362994	0.248936	0.336107	818.662781
9125.363897	0.454402	0.336107	1228.987671
9125.364855	0.098855	0.336107	1323.690796
9125.365758	0.099943	0.336107	1413.938965
9125.366661	0.102155	0.336107	1506.184570
9125.367549	0.100569	0.336107	1595.489746
9125.368495	0.099584	0.336107	1689.695923
9125.369405	0.100382	0.336107	1781.043579
9125.370303	0.101052	0.336107	1871.788452
9125.371249	0.099906	0.336107	1966.299561
9125.372153	0.099185	0.336107	2055.962402
9125.373054	0.101437	0.336107	2147.356934
9126.397389	0.704817	0.338991	309.414612
9126.398348	0.255535	0.338991	554.472351
9126.399270	0.249056	0.338991	784.102356
9126.400174	0.474254	0.338991	1212.828125
9126.401130	0.099496	0.338991	1307.946167
9126.402022	0.099620	0.338991	1396.807495
9126.402924	0.101931	0.338991	1488.749390
9126.403816	0.103033	0.338991	1580.655273
9126.404753	0.099459	0.338991	1673.848633
9126.405655	0.099884	0.338991	1763.944092
9126.406560	0.101543	0.338991	1855.840454
9126.407450	0.101642	0.338991	1946.301636
9126.408394	0.098936	0.338991	2039.696777
9126.409304	0.100558	0.338991	2131.204346
9127.387646	0.715781	0.338681	350.732788
9127.388562	0.255623	0.338681	584.883057
9127.389467	0.249159	0.338681	810.371887
9127.390362	0.487053	0.338681	1246.284546
9127.391327	0.099045	0.338681	1341.863403
9127.392230	0.100448	0.338681	1432.567993
9127.393125	0.101913	0.338681	1523.780029
9127.394012	0.100847	0.338681	1613.231445
9127.394969	0.099133	0.338681	1708.102051
9127.395883	0.101104	0.338681	1800.510620
9127.396783	0.101752	0.338681	1892.087158
9127.397715	0.099532	0.338681	1984.851440
9127.398615	0.098807	0.338681	2073.778076
9127.399512	0.102294	0.338681	2165.535645
9128.432084	0.689733	0.330443	304.861847
9128.432993	0.254462	0.330443	536.167480
9128.433887	0.248928	0.330443	758.709351
9128.434855	0.486980	0.330443	1230.105957
9128.435759	0.100038	0.330443	1320.540161
9128.436648	0.101572	0.330443	1410.837891
9128.437583	0.100803	0.330443	1505.088867
9128.438491	0.099895	0.330443	1595.793579
9128.439395	0.101927	0.330443	1687.936035
9128.440285	0.101012	0.330443	1777.836670
9128.441242	0.099368	0.330443	1872.931519
9128.442147	0.100082	0.330443	1963.505493
9128.443054	0.102206	0.330443	2056.206055
9128.443946	0.100173	0.330443	2145.560791
9129.431506	0.692567	0.347543	308.192352
9129.432426	0.254678	0.347543	542.495850
9129.433335	0.249199	0.347543	769.017944
9129.434295	0.482948	0.347543	1232.647949
9129.435189	0.098983	0.347543	1321.138916
9129.436090	0.101656	0.347543	1412.731445
9129.436976	0.101949	0.347543	1503.058716
9129.437915	0.099694	0.347543	1596.671021
9129.438824	0.100422	0.347543	1687.954956
9129.439728	0.101913	0.347543	1780.084229
9129.440654	0.100027	0.347543	1872.709106
9129.441572	0.099056	0.347543	1963.642822
9129.442487	0.101078	0.347543	2056.129150
9129.443383	0.100631	0.347543	2146.294678
9130.453455	0.714353	0.339088	314.315338
9130.454432	0.255648	0.339088	564.083618
9130.455351	0.248833	0.339088	792.761108
9130.456258	0.470230	0.339088	1219.259277
9130.457178	0.100627	0.339088	1311.836548
9130.458108	0.099785	0.339088	1404.636719
9130.459018	0.100946	0.339088	1496.497559
9130.459918	0.101052	0.339088	1587.444580
9130.460850	0.099869	0.339088	1680.522827
9130.461756	0.099551	0.339088	1770.715820
9130.462656	0.100909	0.339088	1861.534302
9130.463542	0.100371	0.339088	1950.463135
9130.464498	0.098859	0.339088	2044.972046
9130.465403	0.099481	0.339088	2135.002441
9131.479498	0.714269	0.337642	313.563995
9131.480446	0.254971	0.337642	555.276245
9131.481379	0.249012	0.337642	787.604858
9131.482299	0.478777	0.337642	1228.079590
9131.483192	0.101418	0.337642	1318.646240
9131.484119	0.099690	0.337642	1411.058838
9131.485022	0.100228	0.337642	1501.564941
9131.485924	0.101257	0.337642	1592.899048
9131.486813	0.102275	0.337642	1683.821899
9131.487757	0.099598	0.337642	1777.842773
9131.488654	0.100950	0.337642	1868.394653
9131.489548	0.101547	0.337642	1959.177368
9131.490485	0.100148	0.337642	2053.015869
9131.491387	0.099155	0.337642	2142.453857
9132.485091	0.693289	0.346375	312.673157
9132.485999	0.255033	0.346375	544.243103
9132.486896	0.249935	0.346375	768.435059
9132.487820	0.393772	0.346375	1132.280396
9132.488758	0.101437	0.346375	1227.428101
9132.489660	0.101697	0.346375	1319.158569
9132.490555	0.101638	0.346375	1410.124756
9132.491483	0.100642	0.346375	1503.520630
9132.492399	0.101279	0.346375	1596.292480
9132.493320	0.101653	0.346375	1689.914795
9132.494207	0.100829	0.346375	1779.349976
9132.495165	0.099866	0.346375	1875.021362
9132.496064	0.100869	0.346375	1965.702759
9132.496955	0.100638	0.346375	2055.371582
9133.500888	0.683719	0.337267	302.204010
9133.501806	0.255198	0.337267	536.475525
9133.502713	0.249587	0.337267	762.851318
9133.503665	0.451802	0.337267	1192.966553
9133.504574	0.099056	0.337267	1283.008789
9133.505475	0.102645	0.337267	1375.492187
9133.506364	0.102444	0.337267	1466.564819
9133.507331	0.099591	0.337267	1562.869385
9133.508230	0.100045	0.337267	1652.809937
9133.509132	0.101873	0.337267	1744.698975
9133.510022	0.100386	0.337267	1834.042236
9133.510962	0.098829	0.337267	1926.941772
9133.511874	0.100583	0.337267	2018.673950
9133.512772	0.101514	0.337267	2109.833252
9134.540238	0.703191	0.339636	308.700775
9134.541181	0.255194	0.339636	549.348816
9134.542098	0.249232	0.339636	777.894714
9134.543028	0.480414	0.339636	1224.679565
9134.543923	0.101572	0.339636	1315.586792
9134.544899	0.100525	0.339636	1413.699097
9134.545810	0.102330	0.339636	1506.921997
9134.546730	0.102297	0.339636	1601.035522
9134.547622	0.101217	0.339636	1691.321167
9134.548576	0.100807	0.339636	1787.490967
9134.549482	0.100726	0.339636	1878.749023
9134.550367	0.101228	0.339636	1968.335815
9134.551295	0.099946	0.339636	2061.085937
9134.552200	0.100994	0.339636	2152.485107
9135.528413	0.687528	0.331184	310.762695
9135.529315	0.254963	0.331184	540.739624
9135.530267	0.249126	0.331184	777.907593
9135.531195	0.484329	0.331184	1227.364502
9135.532099	0.100364	0.331184	1318.093384
9135.532985	0.102502	0.331184	1408.910522
9135.533933	0.099562	0.331184	1503.295044
9135.534842	0.099789	0.331184	1594.003052
9135.535737	0.101832	0.331184	1685.142944
9135.536646	0.099873	0.331184	1775.927490
9135.537544	0.099335	0.331184	1865.130127
9135.538456	0.101250	0.331184	1957.470093
9135.539355	0.101836	0.331184	2049.020508
9135.540278	0.099642	0.331184	2140.990479
9136.562642	0.692325	0.334016	307.392517
9136.563541	0.255103	0.334016	536.729736
9136.564493	0.249393	0.334016	774.152161
9136.565415	0.478455	0.334016	1215.287354
9136.566336	0.101741	0.334016	1308.990601
9136.567223	0.101041	0.334016	1398.614258
9136.568167	0.100620	0.334016	1493.599609
9136.569063	0.102125	0.334016	1585.103882
9136.569951	0.101444	0.334016	1675.186279
9136.570881	0.101100	0.334016	1769.209106
9136.571791	0.100671	0.334016	1860.820068
9136.572701	0.100858	0.334016	1952.600952
9136.573588	0.102594	0.334016	2043.601807
9136.574520	0.099576	0.334016	2136.406982
9137.582536	0.719923	0.331039	313.166534
9137.583508	0.254960	0.331039	560.987366
9137.584428	0.248459	0.331039	789.570068
9137.585334	0.480150	0.331039	1224.586060
9137.586218	0.100455	0.331039	1313.388550
9137.587160	0.099979	0.331039	1407.568970
9137.588070	0.100543	0.331039	1499.063232
9137.588971	0.102678	0.331039	1591.576294
9137.589908	0.100521	0.331039	1685.764648
9137.590817	0.099496	0.331039	1776.206421
9137.591714	0.101770	0.331039	1867.494141
9137.592599	0.101345	0.331039	1957.184692
9137.593558	0.099155	0.331039	2052.274658
9137.594462	0.099166	0.331039	2141.920898
9138.589153	0.635482	0.327732	292.957275
9138.590065	0.255176	0.327732	525.677612
9138.591005	0.249049	0.327732	759.783752
9138.591927	0.484871	0.327732	1206.834473
9138.592845	0.100935	0.327732	1299.492920
9138.593733	0.100840	0.327732	1389.038696
9138.594690	0.101554	0.327732	1486.225830
9138.595586	0.102191	0.327732	1577.789062
9138.596475	0.101107	0.327732	1667.673340
9138.597405	0.099294	0.327732	1760.017212
9138.598305	0.100913	0.327732	1850.838989
9138.599220	0.101349	0.327732	1943.573242
9138.600116	0.101814	0.327732	2034.798584
9138.601067	0.099144	0.327732	2129.084717
9139.608030	0.683818	0.331926	312.504974
9139.608925	0.255289	0.331926	540.988892
9139.609873	0.249492	0.331926	777.507446
9139.610788	0.468494	0.331926	1206.179199
9139.611686	0.100697	0.331926	1296.605103
9139.612575	0.101089	0.331926	1386.473145
9139.613512	0.099510	0.331926	1479.714478
9139.614422	0.099998	0.331926	1570.712280
9139.615320	0.101913	0.331926	1662.229980
9139.616235	0.099620	0.331926	1753.382568
9139.617158	0.099163	0.331926	1844.909668
9139.618069	0.100887	0.331926	1936.818115
9139.618959	0.100997	0.331926	2026.705688
9139.619893	0.099404	0.331926	2119.549316
9140.644320	0.706868	0.331684	317.383606
9140.645220	0.254736	0.331684	546.646301
9140.646113	0.249521	0.331684	769.468994
9140.647057	0.444071	0.331684	1188.672119
9140.647978	0.101096	0.331684	1281.781738
9140.648883	0.101664	0.331684	1373.787476
9140.649777	0.101250	0.331684	1464.304932
9140.650709	0.099639	0.331684	1557.168213
9140.651620	0.100869	0.331684	1649.060059
9140.652548	0.101971	0.331684	1743.689575
9140.653437	0.101045	0.331684	1833.518555
9140.654379	0.100133	0.331684	1927.843872
9140.655273	0.102579	0.331684	2019.549805
9140.656161	0.101514	0.331684	2109.693848
9141.630465	0.604753	0.337972	293.305420
9141.631370	0.255194	0.337972	524.256104
9141.632266	0.249272	0.337972	747.604248
9141.633224	0.477030	0.337972	1204.598999
9141.634125	0.099719	0.337972	1294.446045
9141.635024	0.103198	0.337972	1387.221313
9141.635912	0.101635	0.337972	1477.472778
9141.636860	0.099379	0.337972	1571.683716
9141.637764	0.101074	0.337972	1663.054810
9141.638663	0.101656	0.337972	1754.443970
9141.639588	0.099910	0.337972	1846.860352
9141.640488	0.099269	0.337972	1936.202271
9141.641385	0.100939	0.337972	2026.744263
9141.642271	0.102979	0.337972	2117.983154
9142.672835	0.719550	0.317045	312.284485
9142.673803	0.255088	0.317045	559.209534
9142.674715	0.249137	0.317045	786.422424
9142.675638	0.487668	0.317045	1236.540405
9142.676535	0.100734	0.317045	1326.898437
9142.677485	0.100646	0.317045	1422.511963
9142.678394	0.101543	0.317045	1514.814453
9142.679287	0.102440	0.317045	1606.293579
9142.680219	0.100693	0.317045	1700.139771
9142.681139	0.099902	0.317045	1792.049927
9142.682042	0.101613	0.317045	1883.806030
9142.682933	0.101118	0.317045	1973.902344
9142.683868	0.099012	0.317045	2066.479004
9142.684783	0.100466	0.317045	2158.405762
9143.684560	0.722908	0.340820	318.802307
9143.685456	0.254659	0.340820	546.977173
9143.686426	0.249185	0.340820	788.686218
9143.687350	0.468300	0.340820	1221.395020
9143.688247	0.100518	0.340820	1311.559326
9143.689164	0.101305	0.340820	1404.455933
9143.690077	0.099873	0.340820	1495.640015
9143.690992	0.101320	0.340820	1588.347412
9143.691883	0.101503	0.340820	1678.786255
9143.692818	0.099668	0.340820	1771.975830
9143.693736	0.099379	0.340820	1863.205444
9143.694641	0.102371	0.340820	1955.850830
9143.695529	0.100734	0.340820	2045.302246
9143.696474	0.098833	0.340820	2138.699463
9144.692166	0.719894	0.347193	314.593597
9144.693145	0.255363	0.347193	564.593506
9144.694060	0.249027	0.347193	792.453308
9144.694969	0.482578	0.347193	1231.116821
9144.695861	0.100243	0.347193	1320.533447
9144.696803	0.099481	0.347193	1414.244751
9144.697703	0.100909	0.347193	1505.063232
9144.698594	0.101060	0.347193	1595.107300
9144.699503	0.099990	0.347193	1685.998413
9144.700417	0.099437	0.347193	1776.884033
9144.701316	0.101353	0.347193	1868.000000
9144.702203	0.102352	0.347193	1958.786499
9144.703145	0.099360	0.347193	2052.384033
9144.704052	0.099855	0.347193	2142.952148
9145.721291	0.701635	0.319708	310.122467
9145.722184	0.254927	0.319708	537.772095
9145.723168	0.248947	0.319708	782.735474
9145.724094	0.485662	0.319708	1232.458130
9145.724990	0.101287	0.319708	1323.210937
9145.725920	0.100214	0.319708	1416.409668
9145.726818	0.099935	0.319708	1506.151611
9145.727723	0.102719	0.319708	1599.111816
9145.728613	0.101385	0.319708	1689.344971
9145.729557	0.099346	0.319708	1783.127319
9145.730450	0.100214	0.319708	1872.618042
9145.731355	0.101030	0.319708	1964.050415
9145.732267	0.100107	0.319708	2055.348389
9145.733192	0.098778	0.319708	2146.718018
9146.737119	0.673250	0.345062	306.328552
9146.738016	0.254777	0.345062	534.863159
9146.738959	0.249144	0.345062	769.806213
9146.739893	0.471339	0.345062	1210.036865
9146.740781	0.101316	0.345062	1300.005371
9146.741669	0.102111	0.345062	1390.679565
9146.742606	0.099968	0.345062	1484.349854
9146.743517	0.100071	0.345062	1575.514404
9146.744420	0.101785	0.345062	1667.425903
9146.745309	0.101136	0.345062	1757.336182
9146.746257	0.099097	0.345062	1851.279785
9146.747160	0.099763	0.345062	1941.365967
9146.748059	0.100920	0.345062	2032.093384
9146.749004	0.099543	0.345062	2126.161865
9147.743701	0.704850	0.351713	315.772736
9147.744600	0.255073	0.351713	545.083557
9147.745544	0.249540	0.351713	780.649170
9147.746465	0.493469	0.351713	1235.134277
9147.747359	0.100770	0.351713	1325.222900
9147.748251	0.102418	0.351713	1416.579956
9147.749201	0.099529	0.351713	1511.132324
9147.750111	0.099972	0.351713	1602.106812
9147.751003	0.102191	0.351713	1693.261353
9147.751894	0.101620	0.351713	1783.804687
9147.752839	0.098818	0.351713	1877.187988
9147.753744	0.100148	0.351713	1967.821655
9147.754642	0.101422	0.351713	2058.898682
9147.755572	0.099452	0.351713	2151.388916
9148.786169	0.576808	0.338431	278.021393
9148.787093	0.255319	0.338431	513.935791
9148.787994	0.248881	0.338431	738.177246
9148.788942	0.484255	0.338431	1197.251343
9148.789843	0.099305	0.338431	1286.725586
9148.790738	0.102264	0.338431	1378.252197
9148.791628	0.101539	0.338431	1468.622192
9148.792579	0.099749	0.338431	1563.483032
9148.793473	0.100309	0.338431	1653.159180
9148.794376	0.101481	0.338431	1744.796265
9148.795284	0.100616	0.338431	1836.156006
9148.796226	0.099023	0.338431	1929.436035
9148.797134	0.101140	0.338431	2021.271240
9148.798031	0.101232	0.338431	2112.076172
9149.772229	0.728478	0.344325	316.887817
9149.773185	0.255417	0.344325	561.066895
9149.774105	0.249064	0.344325	790.205505
9149.775043	0.477942	0.344325	1238.515015
9149.775930	0.100829	0.344325	1327.950195
9149.776887	0.100997	0.344325	1424.604614
9149.777778	0.101744	0.344325	1515.258911
9149.778665	0.101924	0.344325	1605.665405
9149.779606	0.099866	0.344325	1699.639038
9149.780505	0.100796	0.344325	1790.254517
9149.781426	0.100931	0.344325	1883.212280
9149.782327	0.102198	0.344325	1975.293091
9149.783267	0.099496	0.344325	2068.819092
9149.784170	0.100162	0.344325	2159.265625
9150.814671	0.719458	0.329968	315.122620
9150.815622	0.255256	0.329968	557.871399
9150.816545	0.249005	0.329968	787.703125
9150.817464	0.487764	0.329968	1235.958008
9150.818350	0.100005	0.329968	1324.562378
9150.819299	0.099679	0.329968	1419.157715
9150.820204	0.100854	0.329968	1510.431030
9150.821095	0.102118	0.329968	1601.418091
9150.822026	0.099650	0.329968	1694.191895
9150.822928	0.099496	0.329968	1783.937134
9150.823824	0.102169	0.329968	1875.480713
9150.824712	0.101466	0.329968	1965.582520
9150.825657	0.099302	0.329968	2059.422607
9150.826562	0.099694	0.329968	2149.645264
9151.815182	0.724929	0.355386	366.814178
9151.816087	0.255667	0.355386	598.192383
9151.816997	0.249053	0.355386	824.830322
9151.817901	0.471497	0.355386	1251.063232
9151.818829	0.098617	0.355386	1342.579712
9151.819731	0.099661	0.355386	1432.473633
9151.820634	0.102217	0.355386	1524.775391
9151.821520	0.101162	0.355386	1614.405029
9151.822471	0.099338	0.355386	1708.875854
9151.823377	0.101495	0.355386	1800.830688
9151.824275	0.102078	0.355386	1892.496460
9151.825215	0.100042	0.355386	1986.535522
9151.826113	0.099236	0.355386	2075.649414
9151.827007	0.101895	0.355386	2166.743164
9152.843226	0.687100	0.343797	307.133514
9152.844138	0.254777	0.343797	539.489807
9152.845034	0.249434	0.343797	762.982300
9152.845993	0.460833	0.343797	1204.920654
9152.846909	0.100459	0.343797	1296.941040
9152.847822	0.101938	0.343797	1390.010864
9152.848710	0.102004	0.343797	1480.590820
9152.849654	0.099880	0.343797	1574.877930
9152.850560	0.101100	0.343797	1666.474365
9152.851467	0.100924	0.343797	1758.012451
9152.852361	0.100074	0.343797	1847.479004
9152.853313	0.101023	0.343797	1943.652832
9152.854213	0.100320	0.343797	2033.940674
9152.855100	0.100829	0.343797	2123.375977
9153.861073	0.719246	0.349827	317.187317
9153.862020	0.255245	0.349827	558.904663
9153.862935	0.248943	0.349827	786.687378
9153.863843	0.471427	0.349827	1214.743164
9153.864736	0.099928	0.349827	1303.978882
9153.865674	0.099521	0.349827	1397.330078
9153.866582	0.100800	0.349827	1488.856079
9153.867480	0.101697	0.349827	1580.179810
9153.868417	0.099441	0.349827	1673.355957
9153.869321	0.099016	0.349827	1762.866455
9153.870219	0.101613	0.349827	1854.114502
9153.871108	0.100173	0.349827	1943.168579
9153.872050	0.098734	0.349827	2036.176147
9153.872948	0.099738	0.349827	2125.740479
9154.872789	0.691033	0.330165	304.745422
9154.873697	0.254912	0.330165	536.205627
9154.874596	0.249686	0.330165	760.673584
9154.875553	0.494121	0.330165	1233.547485
9154.876463	0.101217	0.330165	1325.655029
9154.877374	0.101832	0.330165	1418.424194
9154.878267	0.101144	0.330165	1508.745605
9154.879211	0.099778	0.330165	1602.935913
9154.880110	0.101063	0.330165	1693.791748
9154.880995	0.102023	0.330165	1784.081787
9154.881924	0.100170	0.330165	1877.139404
9154.882837	0.099324	0.330165	1967.822021
9154.883742	0.101349	0.330165	2059.542725
9154.884630	0.101741	0.330165	2149.888428
9155.898836	0.687008	0.329347	308.466644
9155.899756	0.255278	0.329347	543.322693
9155.900658	0.249873	0.329347	768.708191
9155.901620	0.477469	0.329347	1228.033813
9155.902523	0.099177	0.329347	1317.590820
9155.903424	0.102378	0.329347	1409.833374
9155.904308	0.102206	0.329347	1500.183350
9155.905254	0.099371	0.329347	1594.188599
9155.906163	0.100137	0.329347	1685.212891
9155.907061	0.101737	0.329347	1776.572754
9155.907984	0.099939	0.329347	1868.816406
9155.908898	0.099086	0.329347	1959.380737
9155.909802	0.100865	0.329347	2050.563232
9155.910692	0.101191	0.329347	2140.623535
9156.906464	0.673737	0.319543	306.550140
9156.907372	0.254956	0.319543	538.050232
9156.908308	0.249196	0.319543	771.297241
9156.909228	0.483838	0.319543	1216.428101
9156.910132	0.101836	0.319543	1308.487793
9156.911022	0.101675	0.319543	1398.978394
9156.911976	0.099921	0.319543	1494.302734
9156.912879	0.101030	0.319543	1585.533081
9156.913772	0.101964	0.319543	1676.587036
9156.914715	0.099888	0.319543	1770.781128
9156.915610	0.099053	0.319543	1859.433350
9156.916508	0.100865	0.319543	1950.010498
9156.917401	0.100411	0.319543	2039.677856
9156.918341	0.098481	0.319543	2132.250488
9157.935617	0.596012	0.316960	294.429932
9157.936541	0.255238	0.316960	530.269897
9157.937475	0.248013	0.316960	761.913757
9157.938374	0.471149	0.316960	1185.476318
9157.939324	0.099478	0.316960	1279.979980
9157.940221	0.101213	0.316960	1370.768433
9157.941109	0.101708	0.316960	1461.084961
9157.942039	0.100829	0.316960	1554.855835
9157.942949	0.101144	0.316960	1646.896729
9157.943856	0.101056	0.316960	1738.554443
9157.944745	0.101202	0.316960	1828.523315
9157.945676	0.099565	0.316960	1921.218750
9157.946594	0.100935	0.316960	2013.877197
9157.947519	0.100825	0.316960	2107.140381
9158.940106	0.714144	0.326165	312.795197
9158.941062	0.254608	0.326165	556.200562
9158.941987	0.248701	0.326165	786.249146
9158.942907	0.471244	0.326165	1219.793579
9158.943805	0.100920	0.326165	1310.420166
9158.944736	0.099822	0.326165	1403.354248
9158.945639	0.100027	0.326165	1493.678467
9158.946547	0.101653	0.326165	1585.979248
9158.947436	0.101331	0.326165	1676.062134
9158.948392	0.099397	0.326165	1771.085693
9158.949298	0.100247	0.326165	1861.909058
9158.950191	0.100825	0.326165	1951.945923
9158.951127	0.100085	0.326165	2045.625854
9158.952025	0.098657	0.326165	2134.219971
9159.970242	0.718854	0.320155	310.544830
9159.971199	0.254861	0.320155	554.446655
9159.972122	0.248698	0.320155	783.994446
9159.973037	0.475638	0.320155	1219.203613
9159.973928	0.099873	0.320155	1308.190552
9159.974883	0.099749	0.320155	1403.450439
9159.975788	0.099972	0.320155	1493.925049
9159.976681	0.102349	0.320155	1585.322388
9159.977612	0.100818	0.320155	1679.183838
9159.978519	0.099587	0.320155	1769.509644
9159.979429	0.101202	0.320155	1861.603760
9159.980328	0.100763	0.320155	1952.189697
9159.981263	0.099298	0.320155	2045.033447
9159.982173	0.099393	0.320155	2135.481445
9160.976846	0.714375	0.339169	315.039398
9160.977744	0.254813	0.339169	543.861694
9160.978729	0.248837	0.339169	788.965820
9160.979627	0.483278	0.339169	1222.949097
9160.980522	0.100627	0.339169	1313.010620
9160.981468	0.100276	0.339169	1407.871582
9160.982381	0.100675	0.339169	1499.787842
9160.983279	0.102012	0.339169	1591.394409
9160.984172	0.100902	0.339169	1681.500000
9160.985111	0.099115	0.339169	1774.568970
9160.986022	0.100990	0.339169	1866.570801
9160.986922	0.101180	0.339169	1957.633179
9160.987809	0.100452	0.339169	2046.733765
9160.988751	0.099239	0.339169	2140.217285
9162.003918	0.715466	0.337223	317.667053
9162.004892	0.255125	0.337223	566.158325
9162.005812	0.248247	0.337223	794.545654
9162.006719	0.478495	0.337223	1228.540527
9162.007656	0.099269	0.337223	1321.555420
9162.008561	0.099836	0.337223	1411.907349
9162.009463	0.102136	0.337223	1504.034180
9162.010350	0.101309	0.337223	1593.894897
9162.011293	0.099617	0.337223	1687.833496
9162.012202	0.100353	0.337223	1779.054199
9162.013092	0.101364	0.337223	1869.267700
9162.014005	0.100997	0.337223	1961.478271
9162.014923	0.099097	0.337223	2052.448975
9162.015828	0.099928	0.337223	2142.883789
9163.013581	0.714664	0.339942	315.881622
9163.014549	0.255396	0.339942	563.104492
9163.015473	0.248738	0.339942	792.938232
9163.016376	0.470907	0.339942	1218.167236
9163.017312	0.099642	0.339942	1311.432495
9163.018211	0.099668	0.339942	1401.033936
9163.019123	0.102180	0.339942	1494.222290
9163.020021	0.101931	0.339942	1585.756470
9163.020956	0.099342	0.339942	1678.641235
9163.021867	0.099529	0.339942	1769.312012
9163.022770	0.100825	0.339942	1860.357178
9163.023655	0.100232	0.339942	1949.062500
9163.024613	0.099067	0.339942	2043.968994
9163.025528	0.099613	0.339942	2135.114990
9164.033494	0.720901	0.352063	325.126312
9164.034391	0.255278	0.352063	554.110962
9164.035356	0.249177	0.352063	794.567017
9164.036290	0.479022	0.352063	1241.973755
9164.037205	0.100814	0.352063	1334.218750
9164.038102	0.101803	0.352063	1425.536011
9164.039051	0.100950	0.352063	1521.337280
9164.039973	0.101821	0.352063	1615.216553
9164.040861	0.101993	0.352063	1705.786743
9164.041815	0.099796	0.352063	1800.992310
9164.042724	0.100975	0.352063	1892.778931
9164.043644	0.101755	0.352063	1986.393921
9164.044531	0.100953	0.352063	2075.939453
9164.045470	0.099884	0.352063	2169.730469
9165.055445	0.715488	0.334012	320.538757
9165.056340	0.255026	0.334012	548.786682
9165.057284	0.249456	0.334012	784.272705
9165.058201	0.476173	0.334012	1220.923462
9165.059098	0.100759	0.334012	1311.304565
9165.059984	0.101686	0.334012	1401.398193
9165.060932	0.099855	0.334012	1496.060425
9165.061822	0.100492	0.334012	1585.498291
9165.062728	0.101917	0.334012	1677.834595
9165.063627	0.100811	0.334012	1768.463257
9165.064569	0.099349	0.334012	1862.050415
9165.065474	0.101034	0.334012	1953.486084
9165.066369	0.101532	0.334012	2044.357178
9165.067298	0.098950	0.334012	2136.281982
9166.061018	0.678333	0.347310	299.822968
9166.061941	0.255066	0.347310	535.248779
9166.062853	0.249441	0.347310	762.738892
9166.063806	0.468541	0.347310	1209.258789
9166.064711	0.098921	0.347310	1298.782227
9166.065615	0.102111	0.347310	1391.090210
9166.066503	0.101495	0.347310	1481.218140
9166.067443	0.099521	0.347310	1574.768311
9166.068341	0.100514	0.347310	1665.029785
9166.069240	0.101810	0.347310	1756.557251
9166.070129	0.100269	0.347310	1845.696045
9166.071055	0.098954	0.347310	1937.327271
9166.071965	0.099606	0.347310	2027.968506
9166.072861	0.101169	0.347310	2118.616211
9167.103436	0.701437	0.330419	309.333618
9167.104420	0.255817	0.330419	561.057251
9167.105336	0.248807	0.330419	788.964783
9167.106247	0.470230	0.330419	1217.343872
9167.107176	0.099207	0.330419	1309.506714
9167.108077	0.100188	0.330419	1399.776123
9167.108993	0.102096	0.330419	1493.296021
9167.109890	0.101407	0.330419	1584.258545
9167.110835	0.099697	0.330419	1678.472412
9167.111746	0.099976	0.330419	1769.550171
9167.112639	0.101005	0.330419	1859.747314
9167.113575	0.099998	0.330419	1953.344971
9167.114490	0.099349	0.330419	2044.249634
9167.115399	0.101122	0.330419	2136.169434
9168.088536	0.678779	0.351060	304.093140
9168.089440	0.254974	0.351060	534.589966
9168.090385	0.249240	0.351060	770.121277
9168.091310	0.481058	0.351060	1215.100220
9168.092213	0.101305	0.351060	1306.578613
9168.093101	0.101682	0.351060	1396.872314
9168.094050	0.099836	0.351060	1491.617065
9168.094961	0.100664	0.351060	1583.322021
9168.095858	0.101591	0.351060	1674.448730
9168.096789	0.101459	0.351060	1768.906860
9168.097697	0.099342	0.351060	1859.109375
9168.098604	0.100745	0.351060	1950.484741
9168.099498	0.101144	0.351060	2040.907349
9168.100437	0.098855	0.351060	2133.732178
9169.138172	0.721809	0.341461	352.242798
9169.139086	0.255066	0.341461	585.373047
9169.140000	0.248588	0.341461	812.582153
9169.140904	0.479821	0.341461	1246.339844
9169.141862	0.100986	0.341461	1343.084717
9169.142768	0.100953	0.341461	1434.548462
9169.143660	0.102510	0.341461	1525.987183
9169.144570	0.101455	0.341461	1618.311279
9169.145523	0.101136	0.341461	1714.694336
9169.146441	0.102367	0.341461	1808.667236
9169.147326	0.100887	0.341461	1897.952637
9169.148276	0.100433	0.341461	1993.364258
9169.149170	0.101345	0.341461	2083.966797
9169.150079	0.100836	0.341461	2175.626953
9170.129351	0.719685	0.329492	315.941742
9170.130333	0.255194	0.329492	566.542358
9170.131240	0.248566	0.329492	791.991455
9170.132156	0.480304	0.329492	1231.949829
9170.133045	0.100499	0.329492	1321.293701
9170.134003	0.099595	0.329492	1416.705444
9170.134909	0.100789	0.329492	1508.019897
9170.135811	0.101744	0.329492	1599.793335
9170.136723	0.099891	0.329492	1690.894287
9170.137621	0.099078	0.329492	1779.866699
9170.138517	0.101697	0.329492	1870.987061
9170.139402	0.101437	0.329492	1960.758545
9170.140341	0.099031	0.329492	2053.748535
9170.141249	0.099434	0.329492	2144.034180
9171.161564	0.664720	0.352212	297.130066
9171.162472	0.254912	0.352212	528.590271
9171.163372	0.249445	0.352212	753.090393
9171.164331	0.481099	0.352212	1214.463989
9171.165245	0.099950	0.352212	1305.818237
9171.166138	0.101715	0.352212	1396.649780
9171.167068	0.099902	0.352212	1489.558960
9171.167970	0.100316	0.352212	1580.044189
9171.168867	0.101730	0.352212	1671.295776
9171.169760	0.101074	0.352212	1761.555054
9171.170692	0.098936	0.352212	1853.762939
9171.171607	0.100638	0.352212	1945.847046
9171.172507	0.100547	0.352212	2036.339233
9171.173395	0.099990	0.352212	2125.130615
9172.182485	0.714236	0.333360	315.692230
9172.183454	0.255077	0.333360	562.861755
9172.184365	0.248522	0.333360	789.265015
9172.185276	0.467047	0.333360	1214.744873
9172.186162	0.099950	0.333360	1303.300537
9172.187110	0.099642	0.333360	1397.761475
9172.188010	0.101067	0.333360	1488.721680
9172.188907	0.101364	0.333360	1579.644775
9172.189837	0.099708	0.333360	1672.373413
9172.190744	0.099298	0.333360	1762.436768
9172.191645	0.101235	0.333360	1853.649780
9172.192535	0.101118	0.333360	1943.644897
9172.193483	0.099027	0.333360	2037.522583
9172.194383	0.099686	0.333360	2127.240234
9173.185993	0.706399	0.352474	309.402710
9173.186965	0.255033	0.352474	557.294739
9173.187892	0.248265	0.352474	787.436768
9173.188805	0.473441	0.352474	1219.688477
9173.189734	0.099353	0.352474	1311.987427
9173.190640	0.099536	0.352474	1402.167114
9173.191544	0.101532	0.352474	1493.952026
9173.192432	0.102067	0.352474	1584.587158
9173.193379	0.099379	0.352474	1678.698730
9173.194278	0.099968	0.352474	1768.570190
9173.195177	0.100748	0.352474	1859.142944
9173.196069	0.101320	0.352474	1949.520020
9173.197028	0.099100	0.352474	2044.557251
9173.197934	0.100060	0.352474	2135.211426
9174.217173	0.700503	0.348619	309.622284
9174.218076	0.254923	0.348619	539.817871
9174.218973	0.249796	0.348619	763.885010
9174.219943	0.479300	0.348619	1228.806519
9174.220850	0.099086	0.348619	1318.677246
9174.221751	0.102396	0.348619	1410.936279
9174.222636	0.100532	0.348619	1499.907349
9174.223574	0.099459	0.348619	1593.200073
9174.224478	0.100214	0.348619	1683.793213
9174.225372	0.101407	0.348619	1774.451538
9174.226308	0.099565	0.348619	1867.644775
9174.227218	0.098958	0.348619	1957.696167
9174.228118	0.101019	0.348619	2048.613525
9174.229006	0.101342	0.348619	2138.604736
9175.230944	0.691890	0.323398	315.501678
9175.231838	0.255399	0.323398	543.828552
9175.232794	0.249631	0.323398	782.476135
9175.233711	0.472288	0.323398	1215.563843
9175.234605	0.100250	0.323398	1305.187500
9175.235499	0.100851	0.323398	1395.348145
9175.236432	0.099452	0.323398	1488.136719
9175.237338	0.099723	0.323398	1578.485718
9175.238244	0.101063	0.323398	1670.048950
9175.239132	0.100364	0.323398	1759.171997
9175.240078	0.098976	0.323398	1852.803101
9175.240981	0.100111	0.323398	1943.203369
9175.241873	0.100844	0.323398	2033.155762
9175.242812	0.099836	0.323398	2126.902100
9176.237526	0.689894	0.334520	309.072418
9176.238424	0.254908	0.334520	537.980225
9176.239367	0.249335	0.334520	773.102844
9176.240291	0.479366	0.334520	1216.037476
9176.241186	0.100917	0.334520	1306.357910
9176.242074	0.102437	0.334520	1397.321533
9176.243011	0.099818	0.334520	1490.851074
9176.243913	0.100027	0.334520	1581.075317
9176.244816	0.101744	0.334520	1672.950439
9176.245706	0.101385	0.334520	1763.183594
9176.246652	0.099166	0.334520	1856.994873
9176.247555	0.099752	0.334520	1947.071167
9176.248456	0.101675	0.334520	2038.680176
9176.249403	0.099445	0.334520	2132.854248
9177.281994	0.726464	0.335245	318.191071
9177.282973	0.255454	0.335245	568.280640
9177.283886	0.248613	0.335245	795.264587
9177.284793	0.475085	0.335245	1226.167114
9177.285677	0.100107	0.335245	1314.662109
9177.286634	0.099543	0.335245	1409.925171
9177.287543	0.101257	0.335245	1501.968018
9177.288432	0.101400	0.335245	1592.112793
9177.289357	0.099675	0.335245	1684.312500
9177.290255	0.099291	0.335245	1773.475586
9177.291158	0.101030	0.335245	1864.705933
9177.292052	0.100902	0.335245	1954.912354
9177.292999	0.099133	0.335245	2048.791504
9177.293891	0.099430	0.335245	2137.482910
9178.266061	0.715701	0.330354	316.339691
9178.267052	0.255535	0.330354	569.574585
9178.267960	0.248573	0.330354	795.278870
9178.268857	0.479689	0.330354	1225.559570
9178.269805	0.098954	0.330354	1319.367798
9178.270719	0.100730	0.330354	1411.435059
9178.271617	0.101100	0.330354	1502.222778
9178.272508	0.101576	0.330354	1592.726929
9178.273450	0.099218	0.330354	1686.189819
9178.274357	0.100909	0.330354	1777.714722
9178.275249	0.101895	0.330354	1868.604614
9178.276163	0.100012	0.330354	1960.015747
9178.277083	0.099921	0.330354	2051.942871
9178.277995	0.101250	0.330354	2144.282959
9179.307487	0.650973	0.345626	296.192657
9179.308383	0.254835	0.345626	524.525024
9179.309341	0.248829	0.345626	762.903564
9179.310254	0.479744	0.345626	1200.909424
9179.311154	0.101027	0.345626	1291.833374
9179.312044	0.101591	0.345626	1382.249023
9179.312972	0.099811	0.345626	1474.873413
9179.313880	0.100675	0.345626	1566.286377
9179.314779	0.101613	0.345626	1657.636108
9179.315715	0.100078	0.345626	1751.309204
9179.316619	0.098998	0.345626	1840.803223
9179.317530	0.100492	0.345626	1932.351318
9179.318424	0.101686	0.345626	2023.258423
9179.319378	0.098844	0.345626	2117.555664
9180.318149	0.733268	0.315663	317.504974
9180.319110	0.254747	0.315663	562.317139
9180.320030	0.248778	0.315663	791.192993
9180.320947	0.481597	0.315663	1232.817139
9180.321836	0.100404	0.315663	1322.076294
9180.322783	0.099554	0.315663	1416.354370
9180.323688	0.100214	0.315663	1507.047729
9180.324583	0.101327	0.315663	1597.735352
9180.325489	0.101543	0.315663	1689.733276
9180.326405	0.099602	0.315663	1780.968750
9180.327308	0.100525	0.315663	1871.742676
9180.328201	0.101210	0.315663	1962.122925
9180.329144	0.099543	0.315663	2055.992432
9180.330045	0.099415	0.315663	2145.565674
9181.326811	0.671689	0.335225	302.260254
9181.327718	0.254879	0.335225	533.435669
9181.328617	0.249236	0.335225	757.498718
9181.329595	0.437509	0.335225	1185.382080
9181.330498	0.100452	0.335225	1276.089966
9181.331399	0.103048	0.335225	1368.936279
9181.332329	0.100104	0.335225	1462.032715
9181.333238	0.099415	0.335225	1552.401245
9181.334138	0.100887	0.335225	1643.199951
9181.335025	0.101136	0.335225	1732.907959
9181.335975	0.098976	0.335225	1826.935059
9181.336877	0.100056	0.335225	1917.185669
9181.337776	0.101144	0.335225	2008.113892
9181.338676	0.099690	0.335225	2097.834961
9182.360031	0.687539	0.337674	312.830261
9182.360936	0.255059	0.337674	543.658264
9182.361830	0.249434	0.337674	766.651917
9182.362791	0.468911	0.337674	1217.275513
9182.363699	0.100243	0.337674	1308.296143
9182.364597	0.101550	0.337674	1399.488281
9182.365529	0.100818	0.337674	1493.450562
9182.366437	0.099327	0.337674	1583.639893
9182.367341	0.102096	0.337674	1675.934570
9182.368227	0.101843	0.337674	1766.167725
9182.369179	0.099108	0.337674	1860.518188
9182.370080	0.099269	0.337674	1949.959351
9182.370979	0.101686	0.337674	2041.374878
9182.371865	0.100074	0.337674	2130.040771
9183.366629	0.636240	0.329899	290.125549
9183.367544	0.255190	0.329899	523.624817
9183.368480	0.249155	0.329899	756.834167
9183.369390	0.437813	0.329899	1155.243530
9183.370342	0.100386	0.329899	1250.810791
9183.371240	0.101180	0.329899	1341.670776
9183.372133	0.100942	0.329899	1431.812378
9183.373091	0.099957	0.329899	1527.571411
9183.373985	0.101726	0.329899	1618.514526
9183.374904	0.101451	0.329899	1711.748413
9183.375803	0.100254	0.329899	1801.876709
9183.376760	0.099855	0.329899	1897.437744
9183.377664	0.100649	0.329899	1988.424805
9183.378555	0.101547	0.329899	2078.902832
9184.383459	0.676531	0.338987	308.498047
9184.384357	0.255114	0.338987	537.589966
9184.385306	0.249177	0.338987	774.059204
9184.386231	0.479703	0.338987	1217.784912
9184.387126	0.101316	0.338987	1308.462646
9184.388014	0.101514	0.338987	1398.606812
9184.388946	0.099540	0.338987	1491.377930
9184.389848	0.099803	0.338987	1581.400635
9184.390751	0.102045	0.338987	1673.546997
9184.391636	0.101019	0.338987	1762.949097
9184.392586	0.099166	0.338987	1857.156982
9184.393495	0.101005	0.338987	1948.970215
9184.394384	0.101909	0.338987	2039.567505
9184.395318	0.099510	0.338987	2132.510254
9185.416683	0.655822	0.316787	308.236115
9185.417582	0.254989	0.316787	537.471252
9185.418540	0.248741	0.316787	775.765564
9185.419469	0.472811	0.316787	1215.007324
9185.420367	0.100349	0.316787	1305.120850
9185.421257	0.101437	0.316787	1395.399536
9185.422215	0.099686	0.316787	1490.898926
9185.423113	0.100129	0.316787	1580.815186
9185.424014	0.101726	0.316787	1672.470337
9185.424902	0.100195	0.316787	1761.443726
9185.425839	0.099313	0.316787	1854.499756
9185.426749	0.100873	0.316787	1946.293945
9185.427641	0.101971	0.316787	2037.252441
9185.428573	0.099423	0.316787	2129.914307
9186.405856	0.691468	0.335164	310.469360
9186.406771	0.254908	0.335164	543.710571
9186.407676	0.249232	0.335164	769.265686
9186.408636	0.483281	0.335164	1233.215698
9186.409542	0.099467	0.335164	1323.332397
9186.410445	0.102854	0.335164	1416.209595
9186.411333	0.101243	0.335164	1506.113037
9186.412286	0.099635	0.335164	1601.065186
9186.413191	0.100558	0.335164	1692.070068
9186.414083	0.101517	0.335164	1782.623535
9186.415020	0.099891	0.335164	1876.221680
9186.415927	0.099229	0.335164	1966.221924
9186.416821	0.101895	0.335164	2057.315674
9186.417710	0.101700	0.335164	2147.727295
9187.457481	0.728613	0.336276	319.861237
9187.458456	0.255421	0.336276	568.896851
9187.459370	0.248990	0.336276	796.474121
9187.460279	0.468197	0.336276	1222.065186
9187.461165	0.100466	0.336276	1311.078369
9187.462108	0.099998	0.336276	1405.376099
9187.463014	0.100931	0.336276	1496.819946
9187.463912	0.101924	0.336276	1588.347534
9187.464831	0.100737	0.336276	1680.925171
9187.465751	0.099360	0.336276	1772.336670
9187.466656	0.100671	0.336276	1863.444336
9187.467548	0.101594	0.336276	1954.066406
9187.468490	0.099452	0.336276	2047.750122
9187.469392	0.099071	0.336276	2137.112305
9188.441608	0.722128	0.324924	361.063843
9188.442529	0.255527	0.324924	596.404541
9188.443432	0.248892	0.324924	821.153687
9188.444327	0.484193	0.324924	1254.506592
9188.445266	0.099247	0.324924	1347.699341
9188.446168	0.100602	0.324924	1438.442139
9188.447069	0.102378	0.324924	1530.684692
9188.447979	0.101228	0.324924	1622.802246
9188.448909	0.099756	0.324924	1715.575195
9188.449819	0.101554	0.324924	1807.989258
9188.450711	0.100898	0.324924	1897.990723
9188.451657	0.099239	0.324924	1991.871338
9188.452557	0.099016	0.324924	2080.985840
9188.453449	0.102330	0.324924	2172.264404
9189.486043	0.691871	0.339749	309.266479
9189.486947	0.254952	0.339749	539.743469
9189.487857	0.249294	0.339749	766.601379
9189.488812	0.481425	0.339749	1226.361816
9189.489724	0.100060	0.339749	1317.616333
9189.490620	0.101495	0.339749	1408.556152
9189.491551	0.099998	0.339749	1501.653931
9189.492460	0.099576	0.339749	1592.168945
9189.493368	0.101147	0.339749	1684.010864
9189.494259	0.101180	0.339749	1774.162598
9189.495206	0.099375	0.339749	1868.270752
9189.496112	0.100118	0.339749	1958.978027
9189.497009	0.101550	0.339749	2050.068604
9189.497928	0.100038	0.339749	2142.003418
9190.485479	0.631428	0.310588	289.825531
9190.486406	0.255242	0.310588	526.434570
9190.487307	0.249316	0.310588	751.068604
9190.488262	0.481531	0.310588	1210.930420
9190.489163	0.098928	0.310588	1300.064697
9190.490057	0.101532	0.310588	1390.834229
9190.490945	0.100884	0.310588	1480.419067
9190.491897	0.099547	0.310588	1575.187988
9190.492812	0.100521	0.310588	1667.164917
9190.493717	0.101005	0.310588	1758.574097
9190.494635	0.099913	0.310588	1850.294556
9190.495537	0.099375	0.310588	1939.930786
9190.496444	0.101378	0.310588	2031.880737
9190.497336	0.101572	0.310588	2122.483154
9191.513549	0.724479	0.330282	317.321686
9191.514513	0.255070	0.330282	563.208740
9191.515431	0.249302	0.330282	792.067749
9191.516334	0.469838	0.330282	1216.331177
9191.517226	0.100521	0.330282	1305.996094
9191.518168	0.099620	0.330282	1399.838501
9191.519070	0.100001	0.330282	1490.039551
9191.519973	0.101375	0.330282	1581.580688
9191.520861	0.100514	0.330282	1670.837036
9191.521813	0.099093	0.330282	1765.173584
9191.522726	0.100162	0.330282	1856.621826
9191.523617	0.102158	0.330282	1947.644775
9191.524555	0.099565	0.330282	2041.037109
9191.525450	0.098698	0.330282	2129.371338
9192.527314	0.722988	0.306281	320.283813
9192.528210	0.254689	0.306281	548.484863
9192.529193	0.248719	0.306281	792.976135
9192.530111	0.473276	0.306281	1227.443848
9192.531001	0.101671	0.306281	1317.931152
9192.531935	0.100858	0.306281	1412.132690
9192.532848	0.101803	0.306281	1505.078857
9192.533746	0.101272	0.306281	1596.021118
9192.534632	0.102729	0.306281	1687.039429
9192.535576	0.099741	0.306281	1781.195190
9192.536477	0.101235	0.306281	1872.408203
9192.537401	0.101902	0.306281	1966.565552
9192.538293	0.100371	0.306281	2056.096680
9192.539253	0.099880	0.306281	2151.981934
9193.541147	0.685053	0.336461	355.542267
9193.542066	0.254868	0.336461	589.766113
9193.542966	0.247910	0.336461	812.885254
9193.543866	0.482538	0.336461	1247.169312
9193.544805	0.099053	0.336461	1340.179810
9193.545717	0.100477	0.336461	1431.815063
9193.546614	0.101459	0.336461	1522.823608
9193.547533	0.100942	0.336461	1615.589600
9193.548459	0.099635	0.336461	1707.851562
9193.549368	0.101243	0.336461	1799.881104
9193.550260	0.100906	0.336461	1889.889038
9193.551201	0.099148	0.336461	1983.187256
9193.552105	0.099166	0.336461	2072.833496
9193.553000	0.100496	0.336461	2162.777100
9194.565085	0.659015	0.317722	297.215698
9194.565994	0.255070	0.317722	529.073975
9194.566926	0.249265	0.317722	761.389099
9194.567847	0.413584	0.317722	1142.299927
9194.568785	0.099137	0.317722	1235.290405
9194.569699	0.101741	0.317722	1328.281372
9194.570588	0.101814	0.317722	1418.793945
9194.571537	0.099613	0.317722	1513.326660
9194.572446	0.100906	0.317722	1605.050049
9194.573348	0.102081	0.317722	1697.127441
9194.574235	0.100521	0.317722	1786.289795
9194.575170	0.098855	0.317722	1878.719238
9194.576073	0.100913	0.317722	1969.843750
9194.576963	0.101177	0.317722	2059.891113
9195.573709	0.714785	0.344558	313.790680
9195.574681	0.255242	0.344558	561.885620
9195.575595	0.248859	0.344558	789.342407
9195.576492	0.479465	0.344558	1219.422852
9195.577434	0.099814	0.344558	1313.448120
9195.578340	0.099734	0.344558	1403.807007
9195.579232	0.102067	0.344558	1494.850464
9195.580122	0.102708	0.344558	1586.260132
9195.581056	0.099452	0.344558	1679.148193
9195.581958	0.099778	0.344558	1769.147827
9195.582858	0.100939	0.344558	1859.992676
9195.583746	0.100005	0.344558	1948.796997
9195.584691	0.098829	0.344558	2042.190674
9195.585601	0.099836	0.344558	2133.041748
9196.600842	0.709102	0.326282	358.096283
9196.601753	0.255688	0.326282	591.028503
9196.602660	0.248994	0.326282	816.866211
9196.603563	0.480077	0.326282	1250.375610
9196.604507	0.098679	0.326282	1343.528809
9196.605411	0.100144	0.326282	1434.059082
9196.606307	0.102700	0.326282	1526.078491
9196.607224	0.100111	0.326282	1617.880371
9196.608137	0.099379	0.326282	1708.613037
9196.609045	0.101770	0.326282	1801.020264
9196.609937	0.100774	0.326282	1890.910645
9196.610876	0.099349	0.326282	1984.199707
9196.611776	0.099694	0.326282	2073.923828
9196.612680	0.102030	0.326282	2166.158936
9197.609424	0.714485	0.349537	314.373322
9197.610320	0.254462	0.349537	542.370972
9197.611282	0.248881	0.349537	781.794128
9197.612208	0.462488	0.349537	1210.057861
9197.613095	0.100807	0.349537	1299.473511
9197.614025	0.100631	0.349537	1393.060425
9197.614929	0.099910	0.349537	1483.378784
9197.615834	0.102220	0.349537	1575.888306
9197.616725	0.100543	0.349537	1665.472290
9197.617686	0.099236	0.349537	1760.837891
9197.618586	0.099972	0.349537	1850.812622
9197.619489	0.100627	0.349537	1941.679199
9197.620401	0.100162	0.349537	2033.027222
9197.621324	0.098745	0.349537	2124.168945
9198.635492	0.659366	0.330552	301.989838
9198.636387	0.255051	0.330552	530.260742
9198.637337	0.249023	0.330552	766.833008
9198.638260	0.470914	0.330552	1201.486938
9198.639163	0.100576	0.330552	1292.307251
9198.640047	0.100858	0.330552	1381.465820
9198.640994	0.099624	0.330552	1475.809814
9198.641897	0.100840	0.330552	1566.868164
9198.642793	0.101616	0.330552	1657.916260
9198.643719	0.101521	0.330552	1751.924683
9198.644631	0.099159	0.330552	1842.357666
9198.645550	0.101158	0.330552	1935.322266
9198.646444	0.102374	0.330552	2026.844849
9198.647376	0.099390	0.330552	2119.476074
9199.646166	0.719451	0.347080	318.716644
9199.647062	0.254850	0.347080	547.062134
9199.648014	0.249485	0.347080	784.571716
9199.648944	0.481915	0.347080	1232.752930
9199.649869	0.101100	0.347080	1326.270264
9199.650762	0.102213	0.347080	1417.546631
9199.651705	0.100071	0.347080	1511.913330
9199.652610	0.101115	0.347080	1603.421997
9199.653531	0.101539	0.347080	1696.939697
9199.654430	0.100631	0.347080	1787.407104
9199.655372	0.100338	0.347080	1881.925659
9199.656273	0.100946	0.347080	1972.878052
9199.657162	0.101180	0.347080	2062.827393
9199.658109	0.099067	0.347080	2156.644287
9200.670207	0.715192	0.327893	351.874298
9200.671122	0.255337	0.327893	585.507568
9200.672044	0.248639	0.327893	814.752625
9200.672943	0.481172	0.327893	1247.326172
9200.673884	0.098822	0.327893	1340.317749
9200.674786	0.100283	0.327893	1430.773193
9200.675687	0.101906	0.327893	1522.590088
9200.676573	0.101309	0.327893	1612.349487
9200.677524	0.099598	0.327893	1707.067505
9200.678434	0.100931	0.327893	1798.915039
9200.679325	0.102433	0.327893	1890.182739
9200.680266	0.100562	0.327893	1984.811157
9200.681161	0.099243	0.327893	2073.633789
9200.682054	0.101309	0.327893	2164.102295
9201.687045	0.640616	0.341199	317.745758
9201.687961	0.255352	0.341199	551.647766
9201.688871	0.248654	0.341199	777.922485
9201.689775	0.483695	0.341199	1215.182861
9201.690734	0.098719	0.341199	1309.854858
9201.691638	0.100294	0.341199	1400.520752
9201.692529	0.102697	0.341199	1492.023315
9201.693477	0.100789	0.341199	1587.570923
9201.694384	0.099529	0.341199	1677.843506
9201.695284	0.101506	0.341199	1769.199219
9201.696184	0.101407	0.341199	1860.465942
9201.697116	0.099272	0.341199	1952.987915
9201.698023	0.099540	0.341199	2043.270508
9201.698923	0.101382	0.341199	2134.514160
9202.699725	0.715214	0.320723	316.124451
9202.700690	0.255011	0.320723	562.210083
9202.701603	0.248602	0.320723	789.183960
9202.702514	0.475122	0.320723	1222.020142
9202.703456	0.098892	0.320723	1315.176025
9202.704367	0.099675	0.320723	1405.980225
9202.705265	0.102488	0.320723	1498.014282
9202.706155	0.101060	0.320723	1587.957275
9202.707104	0.099364	0.320723	1682.253662
9202.707999	0.099441	0.320723	1771.253296
9202.708901	0.101411	0.320723	1862.726074
9202.709789	0.100005	0.320723	1951.530396
9202.710733	0.099192	0.320723	2045.167603
9202.711628	0.100858	0.320723	2135.435547
9203.728851	0.700664	0.325923	310.394165
9203.729749	0.254718	0.325923	539.130920
9203.730720	0.248862	0.325923	780.776245
9203.731647	0.479553	0.325923	1225.322021
9203.732545	0.101722	0.325923	1316.668701
9203.733485	0.100082	0.325923	1410.745605
9203.734393	0.099741	0.325923	1501.310669
9203.735296	0.101924	0.325923	1593.347900
9203.736184	0.101404	0.325923	1683.394531
9203.737128	0.099119	0.325923	1776.962524
9203.738036	0.099346	0.325923	1867.168457
9203.738928	0.102191	0.325923	1958.322998
9203.739842	0.099565	0.325923	2049.325684
9203.740764	0.098862	0.325923	2140.476807
9204.728301	0.648889	0.322705	302.382355
9204.729216	0.255099	0.322705	535.797852
9204.730106	0.249371	0.322705	757.738342
9204.731072	0.479509	0.322705	1220.944336
9204.731975	0.100016	0.322705	1311.258667
9204.732898	0.101378	0.322705	1404.830688
9204.733796	0.101180	0.322705	1495.690674
9204.734755	0.100532	0.322705	1592.101074
9204.735665	0.100646	0.322705	1683.688721
9204.736556	0.101455	0.322705	1774.085205
9204.737495	0.099346	0.322705	1867.370850
9204.738396	0.101781	0.322705	1959.075562
9204.739317	0.100778	0.322705	2051.891602
9204.740208	0.100280	0.322705	2141.240723
9205.769724	0.729375	0.322801	357.393738
9205.770641	0.255048	0.322801	591.272400
9205.771544	0.248866	0.322801	815.998413
9205.772441	0.475726	0.322801	1242.724854
9205.773376	0.098855	0.322801	1335.154297
9205.774282	0.100269	0.322801	1425.997559
9205.775183	0.102059	0.322801	1517.953003
9205.776070	0.100851	0.322801	1607.407715
9205.777012	0.099635	0.322801	1701.263916
9205.777913	0.100627	0.322801	1791.929199
9205.778808	0.101371	0.322801	1882.656128
9205.779741	0.100089	0.322801	1976.039307
9205.780638	0.099104	0.322801	2064.935547
9205.781551	0.101411	0.322801	2157.523926
9206.758867	0.705498	0.343040	313.946625
9206.759761	0.254843	0.343040	541.775818
9206.760715	0.249324	0.343040	779.630676
9206.761630	0.466703	0.343040	1206.663818
9206.762541	0.101415	0.343040	1299.052734
9206.763438	0.102319	0.343040	1390.833130
9206.764376	0.100712	0.343040	1485.300659
9206.765288	0.101122	0.343040	1577.523804
9206.766177	0.101470	0.343040	1667.730347
9206.767098	0.099811	0.343040	1759.656128
9206.768024	0.099957	0.343040	1852.216553
9206.768916	0.100547	0.343040	1941.904419
9206.769805	0.100668	0.343040	2031.398071
9206.770749	0.098939	0.343040	2124.796631
9207.806475	0.568531	0.323108	284.834259
9207.807390	0.254758	0.323108	517.938110
9207.808296	0.248427	0.323108	743.012573
9207.809198	0.476708	0.323108	1173.002930
9207.810136	0.099075	0.323108	1265.935059
9207.811036	0.100935	0.323108	1356.776611
9207.811934	0.101598	0.323108	1448.011475
9207.812878	0.100356	0.323108	1542.747925
9207.813786	0.099727	0.323108	1633.299683
9207.814689	0.101971	0.323108	1725.379883
9207.815581	0.101133	0.323108	1815.590332
9207.816525	0.099126	0.323108	1909.165283
9207.817426	0.099250	0.323108	1998.589966
9207.818323	0.100763	0.323108	2088.974365
9208.795598	0.703484	0.349976	307.422455
9208.796545	0.255062	0.349976	548.966431
9208.797459	0.249327	0.349976	776.851685
9208.798369	0.466637	0.349976	1201.491333
9208.799256	0.100752	0.349976	1290.858276
9208.800209	0.099565	0.349976	1385.744141
9208.801114	0.100316	0.349976	1476.530273
9208.802017	0.102426	0.349976	1569.020508
9208.802905	0.100466	0.349976	1658.234619
9208.803856	0.099459	0.349976	1752.820312
9208.804762	0.100708	0.349976	1844.061768
9208.805650	0.100898	0.349976	1933.659546
9208.806582	0.100225	0.349976	2027.068848
9208.807495	0.099906	0.349976	2118.282959
9209.833944	0.687422	0.323567	307.964996
9209.834847	0.255498	0.323567	538.679749
9209.835743	0.249976	0.323567	762.657898
9209.836704	0.480223	0.323567	1224.152588
9209.837604	0.100631	0.323567	1314.720581
9209.838507	0.102466	0.323567	1407.247192
9209.839439	0.100074	0.323567	1500.516602
9209.840345	0.099503	0.323567	1590.666504
9209.841242	0.102048	0.323567	1682.203857
9209.842130	0.101503	0.323567	1772.338257
9209.843085	0.099404	0.323567	1867.269409
9209.843985	0.099825	0.323567	1957.112305
9209.844881	0.101096	0.323567	2047.694458
9209.845767	0.100294	0.323567	2136.555176
9210.843649	0.661989	0.341436	324.374390
9210.844567	0.255414	0.341436	558.844238
9210.845497	0.249038	0.341436	790.449707
9210.846399	0.479366	0.341436	1222.838257
9210.847366	0.100543	0.341436	1320.063599
9210.848270	0.101107	0.341436	1411.464478
9210.849165	0.101917	0.341436	1502.679687
9210.850091	0.101045	0.341436	1596.247314
9210.851004	0.101554	0.341436	1688.966064
9210.851901	0.101162	0.341436	1779.708496
9210.852790	0.100294	0.341436	1868.869995
9210.853734	0.099291	0.341436	1962.600464
9210.854643	0.100811	0.341436	2054.237305
9210.855561	0.100920	0.341436	2146.882324
9211.859462	0.564408	0.338157	279.946381
9211.860377	0.255417	0.338157	513.653381
9211.861280	0.248866	0.338157	738.379395
9211.862180	0.477437	0.338157	1168.072266
9211.863125	0.099034	0.338157	1261.659790
9211.864032	0.101162	0.338157	1353.413818
9211.864929	0.102286	0.338157	1445.164673
9211.865858	0.099990	0.338157	1538.055664
9211.866760	0.099137	0.338157	1627.477173
9211.867661	0.101173	0.338157	1718.634155
9211.868551	0.101927	0.338157	1809.349609
9211.869509	0.098826	0.338157	1904.024658
9211.870408	0.099250	0.338157	1993.250854
9211.871305	0.100393	0.338157	2083.303467
9212.885449	0.720062	0.337762	316.107330
9212.886404	0.254894	0.337762	559.530884
9212.887329	0.248522	0.337762	789.413452
9212.888238	0.484958	0.337762	1230.240723
9212.889175	0.098961	0.337762	1322.967407
9212.890083	0.099946	0.337762	1413.718628
9212.890985	0.101136	0.337762	1504.943726
9212.891871	0.101722	0.337762	1595.069824
9212.892821	0.099587	0.337762	1689.677856
9212.893725	0.100631	0.337762	1780.648437
9212.894625	0.101726	0.337762	1872.201904
9212.895527	0.101027	0.337762	1963.327881
9212.896451	0.099188	0.337762	2054.977783
9212.897362	0.100715	0.337762	2146.729492
9213.891032	0.686774	0.351930	307.674591
9213.891925	0.254487	0.351930	534.931763
9213.892881	0.248749	0.351930	772.735596
9213.893805	0.479579	0.351930	1215.866455
9213.894694	0.100880	0.351930	1305.548828
9213.895620	0.100547	0.351930	1398.655273
9213.896523	0.099844	0.351930	1488.814209
9213.897426	0.101510	0.351930	1580.477783
9213.898314	0.101799	0.351930	1670.875610
9213.899259	0.098983	0.351930	1764.414673
9213.900164	0.099408	0.351930	1854.378906
9213.901069	0.100543	0.351930	1945.370483
9213.901960	0.100312	0.351930	2034.748901
9213.902910	0.098654	0.351930	2128.469727
9214.915023	0.714331	0.340071	316.448639
9214.915994	0.255179	0.340071	564.227905
9214.916901	0.248650	0.340071	789.753357
9214.917809	0.479769	0.340071	1225.383789
9214.918730	0.099990	0.340071	1317.474854
9214.919649	0.099565	0.340071	1408.975464
9214.920560	0.100935	0.340071	1500.927246
9214.921461	0.101616	0.340071	1592.483398
9214.922391	0.099895	0.340071	1685.385742
9214.923291	0.099470	0.340071	1774.908936
9214.924192	0.101975	0.340071	1866.788452
9214.925079	0.100466	0.340071	1955.902100
9214.926009	0.099097	0.340071	2048.062012
9214.926916	0.100089	0.340071	2138.842773
9215.937987	0.719747	0.349432	311.650574
9215.938957	0.254843	0.349432	558.847839
9215.939875	0.248701	0.349432	787.155518
9215.940791	0.478279	0.349432	1225.258911
9215.941678	0.100155	0.349432	1314.096436
9215.942622	0.100060	0.349432	1408.552856
9215.943525	0.101301	0.349432	1500.027954
9215.944414	0.101656	0.349432	1590.400635
9215.945350	0.100789	0.349432	1684.738770
9215.946259	0.099529	0.349432	1775.210449
9215.947166	0.101265	0.349432	1867.057495
9215.948066	0.100950	0.349432	1957.912231
9215.948994	0.099181	0.349432	2049.952148
9215.949890	0.099108	0.349432	2138.752686
9216.940493	0.720271	0.335575	315.478699
9216.941393	0.254941	0.335575	544.925964
9216.942352	0.249346	0.335575	784.048462
9216.943280	0.478865	0.335575	1228.434937
9216.944179	0.100807	0.335575	1319.060303
9216.945068	0.100331	0.335575	1408.254395
9216.946026	0.099836	0.335575	1503.897705
9216.946925	0.100858	0.335575	1594.569214
9216.947823	0.101726	0.335575	1685.919189
9216.948777	0.099419	0.335575	1780.764893
9216.949680	0.098895	0.335575	1870.067261
9216.950574	0.100576	0.335575	1959.982300
9216.951465	0.100426	0.335575	2049.461914
9216.952404	0.098826	0.335575	2142.259277
9217.982934	0.672968	0.342774	300.143524
9217.983843	0.255172	0.342774	532.094971
9217.984740	0.249668	0.342774	756.047119
9217.985722	0.480249	0.342774	1227.651611
9217.986627	0.099778	0.342774	1317.950562
9217.987530	0.101788	0.342774	1409.865479
9217.988454	0.100393	0.342774	1502.628662
9217.989364	0.099639	0.342774	1593.299805
9217.990274	0.101536	0.342774	1685.697266
9217.991170	0.101635	0.342774	1776.761841
9217.992102	0.100060	0.342774	1870.017578
9217.993006	0.099280	0.342774	1959.766479
9217.993906	0.102385	0.342774	2051.913086
9217.994797	0.100452	0.342774	2141.415527
9218.971083	0.714792	0.339865	315.223480
9218.971980	0.254857	0.339865	543.830383
9218.972962	0.248774	0.339865	788.126831
9218.973886	0.477850	0.339865	1229.660522
9218.974778	0.100609	0.339865	1319.403809
9218.975722	0.099902	0.339865	1413.711670
9218.976633	0.100931	0.339865	1505.660156
9218.977538	0.101356	0.339865	1597.387573
9218.978433	0.101396	0.339865	1688.137451
9218.979390	0.099283	0.339865	1783.151733
9218.980285	0.100668	0.339865	1873.249390
9218.981171	0.100931	0.339865	1962.674561
9218.982090	0.100038	0.339865	2054.609375
9218.983010	0.099174	0.339865	2145.849121
9220.015584	0.687155	0.340860	307.158081
9220.016502	0.254663	0.340860	540.938782
9220.017410	0.249104	0.340860	767.125244
9220.018364	0.447990	0.340860	1194.507324
9220.019275	0.098621	0.340860	1284.350708
9220.020174	0.101638	0.340860	1375.723389
9220.021061	0.102231	0.340860	1466.402710
9220.022007	0.099437	0.340860	1560.470337
9220.022902	0.099668	0.340860	1649.673218
9220.023806	0.102206	0.340860	1742.067261
9220.024692	0.100770	0.340860	1831.349731
9220.025628	0.099254	0.340860	1924.251587
9220.026532	0.100583	0.340860	2015.179077
9220.027436	0.101158	0.340860	2106.626221
9221.011915	0.732198	0.354178	320.702942
9221.012884	0.255194	0.354178	567.986023
9221.013788	0.248698	0.354178	792.808594
9221.014719	0.481150	0.354178	1240.759155
9221.015616	0.099880	0.354178	1330.351807
9221.016576	0.100953	0.354178	1427.267090
9221.017480	0.100935	0.354178	1518.512451
9221.018374	0.101748	0.354178	1609.475220
9221.019309	0.099503	0.354178	1702.510742
9221.020225	0.101539	0.354178	1795.520752
9221.021145	0.100701	0.354178	1888.165405
9221.022034	0.100961	0.354178	1977.919434
9221.022986	0.099895	0.354178	2073.019531
9221.023884	0.100968	0.354178	2163.688721
9222.041032	0.724607	0.340599	317.377838
9222.041997	0.255073	0.340599	563.523499
9222.042910	0.248584	0.340599	790.480713
9222.043818	0.484933	0.340599	1230.799805
9222.044756	0.099781	0.340599	1324.394897
9222.045664	0.099767	0.340599	1414.983154
9222.046560	0.101426	0.340599	1505.860596
9222.047448	0.101030	0.340599	1595.575439
9222.048393	0.099408	0.340599	1689.515991
9222.049297	0.099591	0.340599	1779.546265
9222.050196	0.101488	0.340599	1870.784058
9222.051085	0.099891	0.340599	1959.587524
9222.052023	0.098837	0.340599	2052.296387
9222.052934	0.099302	0.340599	2142.760254
9223.058910	0.673143	0.347660	302.914490
9223.059826	0.254835	0.347660	536.343567
9223.060724	0.249258	0.347660	760.177124
9223.061689	0.479447	0.347660	1222.843506
9223.062595	0.099269	0.347660	1312.781006
9223.063490	0.101301	0.347660	1403.445679
9223.064387	0.100737	0.347660	1493.807007
9223.065331	0.099360	0.347660	1587.603149
9223.066248	0.100444	0.347660	1679.710571
9223.067148	0.101558	0.347660	1771.112427
9223.068081	0.100170	0.347660	1864.570679
9223.068993	0.098925	0.347660	1954.789917
9223.069898	0.101411	0.347660	2046.567017
9223.070789	0.102015	0.347660	2137.462646
9224.069591	0.678900	0.334600	304.826172
9224.070488	0.254886	0.334600	533.459351
9224.071433	0.249177	0.334600	768.931885
9224.072365	0.483472	0.334600	1219.527466
9224.073267	0.101891	0.334600	1311.432983
9224.074154	0.102528	0.334600	1402.375366
9224.075098	0.099888	0.334600	1496.669312
9224.076005	0.100133	0.334600	1587.489990
9224.076901	0.101437	0.334600	1678.377319
9224.077819	0.100858	0.334600	1770.965088
9224.078724	0.099199	0.334600	1860.740356
9224.079625	0.100792	0.334600	1951.554199
9224.080525	0.100499	0.334600	2042.003540
9224.081453	0.098807	0.334600	2133.696777
9225.097716	0.715316	0.335422	343.351776
9225.098651	0.255154	0.335422	581.920593
9225.099572	0.248280	0.335422	810.586487
9225.100480	0.468332	0.335422	1235.832397
9225.101419	0.098767	0.335422	1328.574707
9225.102320	0.099694	0.335422	1418.398682
9225.103226	0.101265	0.335422	1510.144409
9225.104111	0.101426	0.335422	1599.906250
9225.105045	0.099437	0.335422	1692.780640
9225.105955	0.100807	0.335422	1784.514893
9225.106856	0.101169	0.335422	1875.668579
9225.107800	0.100159	0.335422	1970.218384
9225.108704	0.099108	0.335422	2059.811768
9225.109613	0.101067	0.335422	2151.681641
9226.102244	0.687151	0.335636	311.966492
9226.103143	0.254392	0.335636	540.664978
9226.104039	0.248965	0.335636	763.737488
9226.105003	0.485131	0.335636	1231.403320
9226.105916	0.100353	0.335636	1323.025391
9226.106816	0.102114	0.335636	1414.928223
9226.107701	0.101997	0.335636	1505.195679
9226.108655	0.099613	0.335636	1600.226562
9226.109557	0.100994	0.335636	1691.322876
9226.110451	0.101466	0.335636	1782.033569
9226.111364	0.100023	0.335636	1873.354736
9226.112275	0.099452	0.335636	1963.955444
9226.113176	0.101323	0.335636	2055.247559
9226.114067	0.101455	0.335636	2145.644043
9227.129302	0.678527	0.337666	304.658447
9227.130206	0.254725	0.337666	534.930176
9227.131155	0.248928	0.337666	771.163086
9227.132091	0.476056	0.337666	1216.751465
9227.132991	0.101115	0.337666	1307.754517
9227.133878	0.100364	0.337666	1396.777222
9227.134827	0.099478	0.337666	1491.181396
9227.135734	0.101023	0.337666	1582.809204
9227.136621	0.101188	0.337666	1672.562744
9227.137552	0.100082	0.337666	1765.738892
9227.138474	0.099302	0.337666	1857.295166
9227.139380	0.101862	0.337666	1949.581787
9227.140278	0.100397	0.337666	2039.738037
9227.141218	0.099185	0.337666	2132.971436
9228.140998	0.727002	0.359016	315.518860
9228.141971	0.255286	0.359016	563.911804
9228.142872	0.248950	0.359016	788.215942
9228.143808	0.473016	0.359016	1230.959229
9228.144705	0.100635	0.359016	1321.228638
9228.145667	0.100968	0.359016	1418.359863
9228.146571	0.102034	0.359016	1510.598267
9228.147466	0.101737	0.359016	1601.652954
9228.148397	0.099690	0.359016	1694.464233
9228.149303	0.100957	0.359016	1785.931274
9228.150196	0.100389	0.359016	1875.578979
9228.151089	0.100785	0.359016	1965.579956
9228.152036	0.099181	0.359016	2059.504395
9228.152931	0.100283	0.359016	2149.257812
9229.161971	0.604666	0.343575	287.820801
9229.162890	0.255172	0.343575	522.323975
9229.163787	0.249097	0.343575	745.763672
9229.164756	0.471903	0.343575	1203.037720
9229.165664	0.100660	0.343575	1294.437378
9229.166559	0.101708	0.343575	1385.465820
9229.167500	0.099836	0.343575	1479.411865
9229.168400	0.099510	0.343575	1568.971313
9229.169294	0.101517	0.343575	1659.727783
9229.170180	0.101305	0.343575	1749.483887
9229.171123	0.099104	0.343575	1842.938965
9229.172029	0.099866	0.343575	1933.417358
9229.172937	0.101272	0.343575	2025.372314
9229.173826	0.101503	0.343575	2115.608154
9230.180817	0.701327	0.358794	311.389160
9230.181795	0.254879	0.358794	560.660950
9230.182699	0.248064	0.358794	784.910767
9230.183600	0.481879	0.358794	1219.083496
9230.184568	0.099196	0.358794	1315.104736
9230.185471	0.100463	0.358794	1405.822510
9230.186378	0.101547	0.358794	1497.925293
9230.187269	0.101635	0.358794	1588.481689
9230.188204	0.099192	0.358794	1681.226074
9230.189097	0.100558	0.358794	1771.024292
9230.190016	0.101071	0.358794	1863.908081
9230.190909	0.100983	0.358794	1954.085571
9230.191854	0.099221	0.358794	2047.849609
9230.192753	0.101060	0.358794	2138.702148
9231.193546	0.708545	0.333211	309.634125
9231.194513	0.255333	0.333211	556.541382
9231.195436	0.248716	0.333211	786.106079
9231.196344	0.484907	0.333211	1226.401855
9231.197274	0.099375	0.333211	1318.820557
9231.198180	0.099650	0.333211	1409.103149
9231.199077	0.101356	0.333211	1500.019653
9231.199965	0.101349	0.333211	1590.017456
9231.200913	0.099276	0.333211	1684.131226
9231.201811	0.100140	0.333211	1774.057251
9231.202708	0.101664	0.333211	1865.249756
9231.203599	0.099756	0.333211	1954.132202
9231.204546	0.099067	0.333211	2047.948975
9231.205457	0.099924	0.333211	2138.979980
9232.219592	0.720095	0.342862	313.961517
9232.220485	0.254696	0.342862	541.405090
9232.221447	0.249075	0.342862	781.014954
9232.222364	0.478334	0.342862	1219.646973
9232.223253	0.100671	0.342862	1309.143799
9232.224199	0.101254	0.342862	1404.929810
9232.225104	0.101228	0.342862	1496.541138
9232.226004	0.101898	0.342862	1588.249512
9232.226896	0.101960	0.342862	1679.198242
9232.227834	0.099459	0.342862	1772.490967
9232.228742	0.101232	0.342862	1864.409302
9232.229649	0.101814	0.342862	1956.754517
9232.230539	0.100734	0.342862	2046.407471
9232.231481	0.098672	0.342862	2139.356445
9233.225174	0.692479	0.325742	311.615662
9233.226073	0.255220	0.325742	541.058228
9233.227011	0.249565	0.325742	775.150635
9233.227945	0.480659	0.325742	1224.086304
9233.228851	0.101294	0.325742	1315.858643
9233.229740	0.102012	0.325742	1406.547119
9233.230697	0.099445	0.325742	1501.715576
9233.231594	0.099807	0.325742	1591.242554
9233.232492	0.102114	0.325742	1682.941162
9233.233377	0.100580	0.325742	1771.954346
9233.234313	0.098881	0.325742	1864.506592
9233.235217	0.099774	0.325742	1954.702393
9233.236112	0.101074	0.325742	2045.163818
9233.237041	0.099397	0.325742	2137.503662
9234.256333	0.714199	0.331426	312.819275
9234.257268	0.254835	0.331426	551.090210
9234.258197	0.248936	0.331426	782.351318
9234.259116	0.482413	0.331426	1225.689209
9234.260004	0.101796	0.331426	1316.083740
9234.260950	0.099800	0.331426	1410.494385
9234.261852	0.101635	0.331426	1502.168701
9234.262749	0.101334	0.331426	1593.065552
9234.263636	0.100441	0.331426	1682.156372
9234.264572	0.099067	0.331426	1774.883423
9234.265478	0.101656	0.331426	1866.984253
9234.266367	0.101133	0.331426	1956.891357
9234.267299	0.100184	0.331426	2050.263184
9234.268211	0.099540	0.331426	2141.043457
9235.261912	0.691996	0.322636	312.090118
9235.262807	0.254443	0.322636	539.816956
9235.263754	0.248789	0.322636	775.420166
9235.264684	0.482036	0.322636	1223.713745
9235.265586	0.101946	0.322636	1315.668823
9235.266476	0.101279	0.322636	1405.807373
9235.267423	0.099485	0.322636	1500.019531
9235.268329	0.100291	0.322636	1590.882690
9235.269224	0.102023	0.322636	1682.192993
9235.270147	0.099727	0.322636	1774.240601
9235.271048	0.099152	0.322636	1863.576172
9235.271943	0.100635	0.322636	1953.644287
9235.272831	0.100250	0.322636	2042.666504
9235.273774	0.099199	0.322636	2136.211426
9236.288974	0.723149	0.328719	317.462585
9236.289870	0.254623	0.328719	545.604614
9236.290825	0.249166	0.328719	783.558411
9236.291764	0.480568	0.328719	1234.811401
9236.292667	0.101243	0.328719	1326.233521
9236.293557	0.100836	0.328719	1415.977783
9236.294515	0.100320	0.328719	1512.084229
9236.295415	0.101426	0.328719	1603.367432
9236.296308	0.101832	0.328719	1694.303711
9236.297258	0.099536	0.328719	1788.863037
9236.298160	0.099917	0.328719	1878.988159
9236.299061	0.101063	0.328719	1970.046143
9236.299949	0.101107	0.328719	2059.829346
9236.300889	0.098767	0.328719	2152.670410
9237.297629	0.692640	0.319567	310.302887
9237.298535	0.254469	0.319567	540.851807
9237.299426	0.249148	0.319567	762.842651
9237.300384	0.481381	0.319567	1224.005249
9237.301285	0.099060	0.319567	1313.258301
9237.302190	0.101862	0.319567	1405.442993
9237.303100	0.100510	0.319567	1496.907349
9237.304029	0.099657	0.319567	1589.488647
9237.304936	0.101895	0.319567	1681.906982
9237.305832	0.101506	0.319567	1772.856689
9237.306774	0.099679	0.319567	1866.754272
9237.307678	0.099426	0.319567	1956.635620
9237.308576	0.101616	0.319567	2047.886963
9237.309461	0.100818	0.319567	2137.110840
9238.321628	0.687334	0.332127	309.300293
9238.322528	0.254857	0.332127	538.671753
9238.323454	0.249316	0.332127	769.538696
9238.324387	0.482011	0.332127	1219.254517
9238.325285	0.100210	0.332127	1309.243042
9238.326176	0.101876	0.332127	1400.014771
9238.327107	0.100085	0.332127	1493.194336
9238.328007	0.100624	0.332127	1583.755737
9238.328902	0.101576	0.332127	1674.666138
9238.329789	0.101111	0.332127	1764.351440
9238.330721	0.098925	0.332127	1856.549072
9238.331619	0.100829	0.332127	1947.093384
9238.332531	0.100792	0.332127	2039.015869
9238.333433	0.099368	0.332127	2128.645508
9239.335365	0.718817	0.313214	311.966614
9239.336315	0.254583	0.313214	553.820007
9239.337242	0.248741	0.313214	784.403320
9239.338163	0.476250	0.313214	1223.029541
9239.339054	0.101060	0.313214	1313.073608
9239.339992	0.099697	0.313214	1406.589600
9239.340900	0.100243	0.313214	1497.610107
9239.341807	0.102448	0.313214	1590.530029
9239.342701	0.100844	0.313214	1680.684082
9239.343643	0.099375	0.313214	1774.295288
9239.344551	0.100012	0.313214	1865.106323
9239.345450	0.101799	0.313214	1956.623901
9239.346377	0.100287	0.313214	2049.589844
9239.347283	0.098782	0.313214	2139.086182
9240.352200	0.705026	0.332204	309.506256
9240.353093	0.254883	0.332204	537.116577
9240.354059	0.249155	0.332204	777.800537
9240.354982	0.475232	0.332204	1216.439697
9240.355873	0.101484	0.332204	1306.862305
9240.356820	0.100415	0.332204	1401.955322
9240.357742	0.100646	0.332204	1494.750732
9240.358643	0.101144	0.332204	1585.881348
9240.359533	0.100924	0.332204	1675.703735
9240.360480	0.099448	0.332204	1769.881226
9240.361388	0.101418	0.332204	1861.969238
9240.362283	0.101206	0.332204	1952.548706
9240.363177	0.100708	0.332204	2042.581665
9240.364123	0.099287	0.332204	2136.507324
9241.375175	0.718627	0.314793	312.602600
9241.376128	0.254908	0.314793	555.530334
9241.377060	0.248936	0.314793	787.538269
9241.377977	0.480996	0.314793	1228.611694
9241.378868	0.101129	0.314793	1318.717773
9241.379805	0.099851	0.314793	1412.278198
9241.380707	0.099734	0.314793	1502.238159
9241.381602	0.101843	0.314793	1593.387939
9241.382493	0.101664	0.314793	1683.970459
9241.383425	0.099210	0.314793	1776.434326
9241.384334	0.099602	0.314793	1866.972534
9241.385233	0.100994	0.314793	1957.765869
9241.386166	0.099697	0.314793	2050.783447
9241.387064	0.098829	0.314793	2139.532227
9242.382858	0.731382	0.336619	366.422302
9242.383764	0.255117	0.336619	597.558472
9242.384676	0.248514	0.336619	824.203613
9242.385576	0.483307	0.336619	1259.179810
9242.386517	0.098679	0.336619	1352.036987
9242.387422	0.100375	0.336619	1442.876099
9242.388326	0.101510	0.336619	1534.641113
9242.389216	0.101821	0.336619	1625.262085
9242.390166	0.099591	0.336619	1719.873535
9242.391085	0.100939	0.336619	1812.636230
9242.391978	0.101697	0.336619	1903.451416
9242.392917	0.099877	0.336619	1997.235596
9242.393810	0.099305	0.336619	2085.915283
9242.394713	0.101133	0.336619	2177.238281
9243.412987	0.567272	0.327853	272.290405
9243.413902	0.255502	0.327853	506.074463
9243.414808	0.249309	0.327853	731.948486
9243.415707	0.477437	0.327853	1161.163940
9243.416655	0.098716	0.327853	1254.746582
9243.417563	0.100393	0.327853	1345.903442
9243.418459	0.101265	0.327853	1436.636597
9243.419400	0.100576	0.327853	1531.278809
9243.420300	0.099393	0.327853	1620.732788
9243.421192	0.101807	0.327853	1711.544312
9243.422082	0.101136	0.327853	1801.555786
9243.423015	0.099316	0.327853	1894.218018
9243.423917	0.100232	0.327853	1984.627197
9243.424818	0.101118	0.327853	2075.734619
9244.417502	0.678915	0.341670	308.906219
9244.418398	0.255029	0.341670	537.412476
9244.419348	0.249166	0.341670	774.120422
9244.420279	0.476810	0.341670	1218.030762
9244.421175	0.100909	0.341670	1308.445557
9244.422063	0.102100	0.341670	1399.109985
9244.423013	0.099785	0.341670	1493.905884
9244.423915	0.100375	0.341670	1584.443970
9244.424821	0.101642	0.341670	1676.531494
9244.425732	0.100869	0.341670	1768.423340
9244.426661	0.099283	0.341670	1860.657715
9244.427576	0.101045	0.341670	1953.113770
9244.428469	0.101609	0.341670	2043.850464
9244.429405	0.099254	0.341670	2136.752441
9245.445604	0.645839	0.339539	297.085754
9245.446513	0.255095	0.339539	528.967285
9245.447467	0.248895	0.339539	766.413330
9245.448381	0.480000	0.339539	1205.133301
9245.449302	0.100441	0.339539	1297.639160
9245.450191	0.100448	0.339539	1386.937378
9245.451157	0.100935	0.339539	1484.440674
9245.452081	0.101968	0.339539	1578.658936
9245.452970	0.100602	0.339539	1668.093994
9245.453922	0.100448	0.339539	1763.720459
9245.454818	0.101067	0.339539	1854.276367
9245.455730	0.100964	0.339539	1946.355835
9245.456633	0.100756	0.339539	2037.338135
9245.457566	0.100199	0.339539	2130.823730
9246.456293	0.659615	0.327474	302.103882
9246.457209	0.254597	0.327474	535.314941
9246.458108	0.249144	0.327474	759.295654
9246.459068	0.437747	0.327474	1179.532349
9246.459964	0.098851	0.327474	1268.103149
9246.460863	0.102100	0.327474	1359.890747
9246.461756	0.102045	0.327474	1451.016602
9246.462698	0.099668	0.327474	1544.903809
9246.463599	0.099906	0.327474	1634.919067
9246.464504	0.102026	0.327474	1727.252930
9246.465392	0.100280	0.327474	1816.301147
9246.466341	0.098826	0.327474	1910.086670
9246.467255	0.100844	0.327474	2002.257568
9246.468148	0.101561	0.327474	2092.951904
9247.473149	0.721575	0.335172	355.014771
9247.474067	0.255403	0.335172	589.474609
9247.474989	0.248789	0.335172	818.858154
9247.475897	0.464469	0.335172	1240.595947
9247.476849	0.099620	0.335172	1335.434570
9247.477756	0.101891	0.335172	1427.849609
9247.478683	0.101188	0.335172	1521.650635
9247.479574	0.100957	0.335172	1611.603394
9247.480530	0.100243	0.335172	1707.435669
9247.481425	0.101349	0.335172	1798.142944
9247.482315	0.101349	0.335172	1888.343506
9247.483250	0.099298	0.335172	1981.187256
9247.484155	0.100891	0.335172	2072.493652
9247.485074	0.101301	0.335172	2165.589600
9248.501192	0.731909	0.318072	316.184753
9248.502138	0.254886	0.318072	557.307373
9248.503049	0.249379	0.318072	784.491333
9248.503958	0.474232	0.318072	1215.568359
9248.504845	0.101781	0.318072	1305.848145
9248.505798	0.099778	0.318072	1400.936401
9248.506691	0.100452	0.318072	1490.639771
9248.507596	0.103015	0.318072	1583.868408
9248.508484	0.101034	0.318072	1673.586548
9248.509434	0.099554	0.318072	1768.163330
9248.510339	0.100144	0.318072	1858.793701
9248.511239	0.101517	0.318072	1950.159302
9248.512177	0.099727	0.318072	2043.702881
9248.513075	0.099119	0.318072	2132.711426
9249.498567	0.728225	0.340176	318.962585
9249.499525	0.255377	0.340176	563.613892
9249.500451	0.248925	0.340176	794.118042
9249.501363	0.478927	0.340176	1230.899414
9249.502248	0.099229	0.340176	1318.716675
9249.503187	0.099664	0.340176	1412.301514
9249.504084	0.101506	0.340176	1503.352661
9249.504972	0.101440	0.340176	1593.431763
9249.505923	0.100371	0.340176	1688.884644
9249.506823	0.100811	0.340176	1779.614136
9249.507724	0.101627	0.340176	1871.180298
9249.508611	0.101510	0.340176	1961.219727
9249.509550	0.099163	0.340176	2054.333496
9249.510460	0.100638	0.340176	2145.914551
9250.544073	0.705483	0.329436	310.412689
9250.544972	0.254711	0.329436	539.397583
9250.545968	0.248569	0.329436	786.972656
9250.546894	0.467845	0.329436	1220.197510
9250.547789	0.100737	0.329436	1310.357422
9250.548729	0.099862	0.329436	1404.227783
9250.549639	0.099712	0.329436	1494.965576
9250.550537	0.101550	0.329436	1586.157715
9250.551422	0.100635	0.329436	1675.219482
9250.552364	0.099155	0.329436	1768.623779
9250.553258	0.099576	0.329436	1857.645142
9250.554164	0.101082	0.329436	1949.224976
9250.555058	0.100488	0.329436	2039.061523
9250.556007	0.098965	0.329436	2132.979248
9251.528134	0.734392	0.338762	319.460571
9251.529117	0.255461	0.338762	570.579163
9251.530039	0.248481	0.338762	799.679077
9251.530951	0.478143	0.338762	1235.745728
9251.531887	0.099119	0.338762	1328.520752
9251.532788	0.099364	0.338762	1418.047729
9251.533687	0.102612	0.338762	1510.296143
9251.534577	0.101052	0.338762	1600.232666
9251.535514	0.099324	0.338762	1693.298950
9251.536405	0.099888	0.338762	1782.298828
9251.537307	0.102213	0.338762	1874.495117
9251.538198	0.100653	0.338762	1964.177002
9251.539139	0.099089	0.338762	2057.420166
9251.540047	0.100331	0.338762	2148.520508
9252.578784	0.664189	0.339172	296.892700
9252.579703	0.255059	0.339172	531.291504
9252.580615	0.249338	0.339172	758.688110
9252.581523	0.439676	0.339172	1157.914307
9252.582483	0.098811	0.339172	1252.772949
9252.583392	0.101023	0.339172	1344.602783
9252.584291	0.104117	0.339172	1438.204346
9252.585231	0.099540	0.339172	1531.771729
9252.586132	0.099437	0.339172	1621.364746
9252.587035	0.101843	0.339172	1713.329224
9252.587922	0.100748	0.339172	1802.692993
9252.588857	0.099229	0.339172	1895.471680
9252.589763	0.100499	0.339172	1986.524048
9252.590664	0.102081	0.339172	2078.499268
9253.568995	0.677545	0.321295	304.895325
9253.569916	0.255135	0.321295	539.875122
9253.570819	0.249463	0.321295	765.140137
9253.571776	0.480330	0.321295	1224.815552
9253.572680	0.098881	0.321295	1314.203613
9253.573577	0.103180	0.321295	1406.755981
9253.574468	0.101532	0.321295	1497.220947
9253.575419	0.099701	0.321295	1592.036499
9253.576320	0.100529	0.321295	1682.612793
9253.577222	0.102341	0.321295	1774.924683
9253.578127	0.100844	0.321295	1866.188110
9253.579047	0.099108	0.321295	1957.367187
9253.579952	0.100305	0.321295	2048.143311
9253.580850	0.101440	0.321295	2139.236816
9254.603218	0.692029	0.338943	309.336853
9254.604119	0.254619	0.338943	538.748718
9254.605066	0.248837	0.338943	774.397034
9254.605984	0.480945	0.338943	1215.904419
9254.606889	0.101415	0.338943	1307.684814
9254.607780	0.101624	0.338943	1398.231445
9254.608721	0.099906	0.338943	1492.243042
9254.609637	0.101199	0.338943	1584.941040
9254.610527	0.101979	0.338943	1675.702148
9254.611453	0.100247	0.338943	1768.530518
9254.612372	0.098987	0.338943	1859.499390
9254.613284	0.101096	0.338943	1951.699097
9254.614182	0.101206	0.338943	2042.582153
9254.615107	0.099042	0.338943	2134.195801
9255.616981	0.701393	0.318741	315.626770
9255.617875	0.254930	0.318741	543.534546
9255.618842	0.248932	0.318741	784.251709
9255.619767	0.455262	0.318741	1205.369507
9255.620657	0.101158	0.318741	1295.400513
9255.621595	0.100404	0.318741	1389.579468
9255.622510	0.100250	0.318741	1481.308472
9255.623413	0.102151	0.318741	1573.550659
9255.624305	0.101056	0.318741	1663.692505
9255.625251	0.099532	0.318741	1757.850220
9255.626154	0.099683	0.318741	1847.863647
9255.627055	0.101700	0.318741	1939.495728
9255.627961	0.099932	0.318741	2030.033813
9255.628892	0.098892	0.318741	2122.101807
9256.629731	0.657480	0.348135	297.181183
9256.630645	0.254707	0.348135	529.983398
9256.631580	0.248727	0.348135	762.542969
9256.632502	0.432861	0.348135	1161.641113
9256.633440	0.101169	0.348135	1256.538086
9256.634366	0.101437	0.348135	1350.468506
9256.635256	0.100594	0.348135	1439.997559
9256.636200	0.100840	0.348135	1535.190430
9256.637088	0.101100	0.348135	1624.967041
9256.637994	0.101711	0.348135	1717.117554
9256.638890	0.101481	0.348135	1808.044312
9256.639840	0.101477	0.348135	1904.447510
9256.640764	0.101078	0.348135	1997.843506
9256.641659	0.100887	0.348135	2088.137695
9257.657860	0.701411	0.333916	347.899933
9257.658777	0.255524	0.333916	582.215149
9257.659682	0.248837	0.333916	807.412354
9257.660580	0.474467	0.333916	1233.483398
9257.661538	0.098928	0.333916	1328.256592
9257.662441	0.099752	0.333916	1418.332886
9257.663334	0.101323	0.333916	1508.814575
9257.664219	0.101188	0.333916	1598.365723
9257.665157	0.099177	0.333916	1691.394043
9257.666065	0.100569	0.333916	1782.710571
9257.666962	0.100840	0.333916	1873.163940
9257.667896	0.099595	0.333916	1966.185425
9257.668799	0.098943	0.333916	2055.530762
9257.669700	0.101678	0.333916	2147.143066
9258.661321	0.715151	0.345485	316.096893
9258.662291	0.255502	0.345485	563.933594
9258.663204	0.248914	0.345485	791.191650
9258.664103	0.481351	0.345485	1223.926514
9258.665048	0.098910	0.345485	1317.396362
9258.665963	0.100298	0.345485	1409.168945
9258.666868	0.101770	0.345485	1501.270752
9258.667758	0.101162	0.345485	1591.305054
9258.668700	0.099360	0.345485	1684.902466
9258.669589	0.101056	0.345485	1774.741211
9258.670514	0.101587	0.345485	1868.709106
9258.671402	0.100243	0.345485	1957.724854
9258.672341	0.099921	0.345485	2051.550293
9258.673243	0.100547	0.345485	2142.243652
9259.691479	0.692252	0.337936	303.898712
9259.692400	0.255059	0.337936	538.807678
9259.693308	0.249478	0.337936	765.333313
9259.694241	0.400660	0.337936	1139.149414
9259.695159	0.098774	0.337936	1229.824341
9259.696074	0.101239	0.337936	1322.458008
9259.696967	0.101638	0.337936	1413.220947
9259.697906	0.099664	0.337936	1506.805664
9259.698806	0.099492	0.337936	1596.348633
9259.699706	0.100939	0.337936	1687.193481
9259.700598	0.100334	0.337936	1776.691895
9259.701537	0.099023	0.337936	1869.674927
9259.702441	0.099686	0.337936	1959.791260
9259.703345	0.100635	0.337936	2050.765137
9260.700116	0.714379	0.324513	317.184113
9260.701011	0.254788	0.324513	545.218994
9260.701960	0.249166	0.324513	781.677795
9260.702879	0.486116	0.324513	1228.418091
9260.703773	0.100221	0.324513	1318.015625
9260.704721	0.100551	0.324513	1413.337524
9260.705633	0.100529	0.324513	1505.019531
9260.706538	0.101711	0.324513	1597.068359
9260.707426	0.101224	0.324513	1686.955566
9260.708384	0.099620	0.324513	1782.391846
9260.709292	0.101364	0.324513	1874.429932
9260.710188	0.102048	0.324513	1965.865234
9260.711075	0.100312	0.324513	2054.842529
9260.712011	0.098844	0.324513	2147.360596
9261.720005	0.719879	0.333231	310.987793
9261.720958	0.254927	0.333231	553.932983
9261.721885	0.249001	0.333231	784.757324
9261.722809	0.471497	0.333231	1220.420166
9261.723696	0.100573	0.333231	1309.627930
9261.724654	0.099862	0.333231	1405.295776
9261.725558	0.101367	0.333231	1496.931763
9261.726451	0.101671	0.333231	1587.724121
9261.727364	0.099902	0.333231	1678.934937
9261.728278	0.099283	0.333231	1769.680054
9261.729188	0.100576	0.333231	1861.204346
9261.730084	0.101477	0.333231	1952.127808
9261.731018	0.099642	0.333231	2045.193726
9261.731923	0.098712	0.333231	2134.528320
9262.742986	0.705831	0.320590	310.565796
9262.743880	0.255044	0.320590	538.575073
9262.744859	0.249027	0.320590	782.372559
9262.745784	0.482098	0.320590	1228.313599
9262.746684	0.100173	0.320590	1318.469604
9262.747570	0.101155	0.320590	1408.092773
9262.748505	0.099675	0.320590	1501.289185
9262.749411	0.100554	0.320590	1592.391235
9262.750305	0.102184	0.320590	1683.743652
9262.751239	0.099536	0.320590	1776.710449
9262.752148	0.099976	0.320590	1867.588257
9262.753046	0.101122	0.320590	1958.395630
9262.753934	0.102158	0.320590	2049.112061
9262.754882	0.099239	0.320590	2143.191162
9263.749574	0.728357	0.343990	317.563629
9263.750504	0.254883	0.343990	554.604614
9263.751449	0.249005	0.343990	789.914429
9263.752371	0.472559	0.343990	1225.613403
9263.753263	0.100649	0.343990	1315.392700
9263.754201	0.099781	0.343990	1408.987793
9263.755106	0.100133	0.343990	1499.608154
9263.756011	0.101840	0.343990	1591.772949
9263.756898	0.101455	0.343990	1681.763550
9263.757823	0.099521	0.343990	1773.820923
9263.758732	0.099551	0.343990	1864.312622
9263.759630	0.100781	0.343990	1954.814209
9263.760562	0.099738	0.343990	2047.769653
9263.761480	0.098738	0.343990	2138.410889
9264.784849	0.691600	0.329726	304.304138
9264.785756	0.255260	0.329726	535.824951
9264.786651	0.250074	0.329726	759.641602
9264.787596	0.440706	0.329726	1176.108398
9264.788506	0.099445	0.329726	1266.602905
9264.789409	0.100898	0.329726	1357.714233
9264.790294	0.102828	0.329726	1448.717285
9264.791236	0.099690	0.329726	1542.625244
9264.792155	0.100594	0.329726	1635.071533
9264.793057	0.100931	0.329726	1726.111694
9264.793942	0.100580	0.329726	1815.124878
9264.794889	0.099100	0.329726	1908.972900
9264.795796	0.100697	0.329726	2000.305054
9264.796683	0.100448	0.329726	2089.402344
9265.780173	0.710977	0.354194	311.407715
9265.781132	0.255403	0.354194	556.339050
9265.782062	0.248921	0.354194	787.835449
9265.782970	0.473364	0.354194	1217.650146
9265.783902	0.099016	0.354194	1309.933105
9265.784801	0.099910	0.354194	1399.751953
9265.785696	0.101971	0.354194	1491.016357
9265.786583	0.101495	0.354194	1581.042725
9265.787529	0.099562	0.354194	1675.228149
9265.788427	0.100082	0.354194	1765.101562
9265.789326	0.101613	0.354194	1856.451294
9265.790233	0.100162	0.354194	1947.298584
9265.791172	0.099104	0.354194	2040.357300
9265.792077	0.099965	0.354194	2130.825195
9266.823679	0.716151	0.330721	350.197906
9266.824601	0.255820	0.330721	586.064209
9266.825514	0.249056	0.330721	813.452698
9266.826415	0.463766	0.330721	1231.305664
9266.827374	0.098895	0.330721	1326.146240
9266.828274	0.100225	0.330721	1416.348389
9266.829178	0.102041	0.330721	1508.593506
9266.830068	0.100686	0.330721	1598.204102
9266.831013	0.099280	0.330721	1692.023437
9266.831921	0.100675	0.330721	1783.436401
9266.832811	0.101298	0.330721	1873.591309
9266.833746	0.100005	0.330721	1967.095825
9266.834650	0.099547	0.330721	2057.086426
9266.835556	0.101638	0.330721	2149.170654
9267.812814	0.705037	0.359536	310.921173
9267.813713	0.254777	0.359536	539.965332
9267.814648	0.249346	0.359536	773.103577
9267.815573	0.476155	0.359536	1213.546753
9267.816502	0.100898	0.359536	1307.281372
9267.817393	0.100737	0.359536	1397.038330
9267.818347	0.100488	0.359536	1492.904175
9267.819241	0.101799	0.359536	1583.912720
9267.820133	0.101818	0.359536	1674.734009
9267.821070	0.101063	0.359536	1769.430298
9267.821980	0.101481	0.359536	1861.777710
9267.822886	0.102111	0.359536	1954.289917
9267.823776	0.102045	0.359536	2045.109619
9267.824716	0.099507	0.359536	2138.645996
9268.859335	0.720161	0.323845	312.549927
9268.860278	0.255132	0.323845	553.139282
9268.861202	0.249130	0.323845	783.335083
9268.862115	0.475302	0.323845	1217.285400
9268.863005	0.100452	0.323845	1306.687378
9268.863952	0.099734	0.323845	1401.135376
9268.864854	0.100741	0.323845	1492.003784
9268.865745	0.101752	0.323845	1582.664551
9268.866669	0.100748	0.323845	1675.755981
9268.867590	0.099481	0.323845	1767.378174
9268.868492	0.100924	0.323845	1858.411743
9268.869393	0.102063	0.323845	1950.370483
9268.870324	0.099573	0.323845	2043.072754
9268.871230	0.099320	0.323845	2133.056641
9269.847562	0.718748	0.360551	360.811279
9269.848464	0.255337	0.360551	591.125183
9269.849391	0.248668	0.360551	821.640625
9269.850292	0.464777	0.360551	1240.404297
9269.851228	0.099141	0.360551	1333.199951
9269.852134	0.101151	0.360551	1424.842896
9269.853059	0.101759	0.360551	1518.969971
9269.853953	0.100664	0.360551	1608.963623
9269.854908	0.100228	0.360551	1704.681641
9269.855798	0.102224	0.360551	1795.661133
9269.856686	0.101287	0.360551	1885.603638
9269.857618	0.099243	0.360551	1978.098267
9269.858524	0.100847	0.360551	2069.465820
9269.859437	0.100646	0.360551	2161.355469
9270.895072	0.687462	0.315003	316.232574
9270.895966	0.254550	0.315003	543.799866
9270.896924	0.248646	0.315003	782.002991
9270.897846	0.475371	0.315003	1220.295166
9270.898748	0.101514	0.315003	1311.860474
9270.899636	0.101045	0.315003	1401.588379
9270.900594	0.099730	0.315003	1497.129883
9270.901505	0.101407	0.315003	1589.512085
9270.902402	0.102034	0.315003	1681.036255
9270.903336	0.100009	0.315003	1774.444214
9270.904234	0.099192	0.315003	1863.518555
9270.905129	0.101027	0.315003	1953.937378
9270.906014	0.101382	0.315003	2043.660278
9270.906949	0.099038	0.315003	2136.260986
9271.882196	0.714492	0.354774	317.234528
9271.883089	0.254828	0.354774	544.795837
9271.884038	0.249148	0.354774	781.237244
9271.884959	0.467791	0.354774	1212.072266
9271.885847	0.100378	0.354774	1301.208252
9271.886763	0.101027	0.354774	1393.748657
9271.887698	0.099939	0.354774	1487.191650
9271.888604	0.100730	0.354774	1578.453003
9271.889496	0.101543	0.354774	1669.029297
9271.890445	0.099543	0.354774	1763.496094
9271.891347	0.100331	0.354774	1853.994507
9271.892242	0.100741	0.354774	1944.157715
9271.893125	0.100529	0.354774	2032.924438
9271.894059	0.098793	0.354774	2125.196777
9272.930776	0.690165	0.307184	309.193848
9272.931674	0.254583	0.307184	537.808960
9272.932563	0.249536	0.307184	759.646545
9272.933523	0.488851	0.307184	1228.943848
9272.934436	0.100067	0.307184	1320.305176
9272.935333	0.101525	0.307184	1411.372803
9272.936251	0.100408	0.307184	1503.547119
9272.937160	0.099686	0.307184	1594.161987
9272.938068	0.100968	0.307184	1685.840942
9272.938960	0.102832	0.307184	1777.567139
9272.939899	0.099785	0.307184	1871.265381
9272.940803	0.099426	0.307184	1961.146729
9272.941696	0.101122	0.307184	2051.448486
9272.942584	0.100756	0.307184	2140.919434
9273.916898	0.673107	0.351157	303.571106
9273.917815	0.254927	0.351157	537.338989
9273.918714	0.249316	0.351157	761.474426
9273.919667	0.443745	0.351157	1184.363525
9273.920564	0.098873	0.351157	1273.052856
9273.921463	0.103055	0.351157	1365.699707
9273.922352	0.101656	0.351157	1456.072388
9273.923286	0.099419	0.351157	1548.929687
9273.924192	0.099833	0.351157	1639.378174
9273.925098	0.101997	0.351157	1731.787476
9273.925987	0.100203	0.351157	1820.867676
9273.926924	0.098749	0.351157	1913.395264
9273.927825	0.100122	0.351157	2003.605225
9273.928716	0.101360	0.351157	2093.916748
9274.966520	0.617512	0.309758	294.553314
9274.967450	0.255103	0.309758	531.798706
9274.968356	0.248705	0.309758	757.125244
9274.969257	0.471866	0.309758	1182.276855
9274.970193	0.099097	0.309758	1275.031372
9274.971103	0.101711	0.309758	1367.588745
9274.972000	0.103088	0.309758	1460.059082
9274.972938	0.099902	0.309758	1553.767456
9274.973846	0.099236	0.309758	1643.873535
9274.974746	0.101565	0.309758	1735.281982
9274.975632	0.100580	0.309758	1824.395752
9274.976587	0.098848	0.309758	1918.795288
9274.977488	0.099573	0.309758	2008.510376
9274.978385	0.100785	0.309758	2098.914551
9275.954654	0.692322	0.335708	312.237122
9275.955555	0.255018	0.335708	542.008667
9275.956505	0.249133	0.335708	778.685303
9275.957425	0.444606	0.335708	1187.722534
9275.958324	0.100917	0.335708	1278.446655
9275.959217	0.101451	0.335708	1369.042725
9275.960152	0.099412	0.335708	1461.992554
9275.961059	0.100415	0.335708	1553.068970
9275.961958	0.101964	0.335708	1644.734741
9275.962846	0.100635	0.335708	1734.098389
9275.963799	0.099067	0.335708	1828.509644
9275.964702	0.100975	0.335708	1919.690430
9275.965594	0.101389	0.335708	2010.129517
9275.966541	0.099591	0.335708	2104.442139
9276.999139	0.729294	0.306048	338.392609
9277.000080	0.254993	0.306048	578.340698
9277.001006	0.248437	0.306048	808.393799
9277.001906	0.475320	0.306048	1236.181641
9277.002843	0.099661	0.306048	1329.563721
9277.003753	0.100038	0.306048	1420.598145
9277.004654	0.101832	0.306048	1512.348999
9277.005550	0.101217	0.306048	1603.039429
9277.006496	0.099291	0.306048	1696.968506
9277.007398	0.100605	0.306048	1787.714600
9277.008293	0.101250	0.306048	1878.333374
9277.009212	0.099719	0.306048	1969.975342
9277.010126	0.098888	0.306048	2060.358887
9277.011037	0.100704	0.306048	2152.100586
9277.992393	0.721351	0.332063	315.230499
9277.993361	0.255121	0.332063	562.187500
9277.994279	0.248379	0.332063	790.199341
9277.995188	0.478444	0.332063	1225.104614
9277.996078	0.099668	0.332063	1313.809082
9277.997014	0.100042	0.332063	1407.447998
9277.997920	0.102198	0.332063	1500.039795
9277.998811	0.101660	0.332063	1590.619019
9277.999741	0.099935	0.332063	1683.558838
9278.000659	0.100353	0.332063	1775.682739
9278.001558	0.102209	0.332063	1867.569092
9278.002448	0.100554	0.332063	1957.062378
9278.003395	0.099298	0.332063	2051.097656
9278.004301	0.100616	0.332063	2142.256104
9279.030759	0.674055	0.313452	310.739441
9279.031656	0.254553	0.313452	539.073669
9279.032603	0.248859	0.313452	774.742798
9279.033529	0.451395	0.313452	1192.734863
9279.034420	0.100704	0.313452	1282.462402
9279.035311	0.101525	0.313452	1372.920898
9279.036254	0.099825	0.313452	1467.056274
9279.037158	0.100415	0.313452	1557.831421
9279.038055	0.101854	0.313452	1649.194702
9279.038974	0.100840	0.313452	1741.866577
9279.039881	0.099137	0.313452	1831.783813
9279.040791	0.100734	0.313452	1923.451416
9279.041681	0.100924	0.313452	2013.273804
9279.042616	0.098840	0.313452	2105.689453
9280.031194	0.678662	0.337295	305.397949
9280.032136	0.254941	0.337295	545.552734
9280.033030	0.248796	0.337295	767.976685
9280.034002	0.471431	0.337295	1226.207275
9280.034890	0.100638	0.337295	1315.574219
9280.035778	0.101279	0.337295	1405.510254
9280.036736	0.099924	0.337295	1501.237793
9280.037628	0.100822	0.337295	1591.170654
9280.038544	0.100869	0.337295	1683.566772
9280.039439	0.100668	0.337295	1773.664429
9280.040381	0.099368	0.337295	1867.268799
9280.041284	0.100737	0.337295	1958.234619
9280.042172	0.101594	0.337295	2048.450195
9280.043094	0.099877	0.337295	2140.536621
9281.061328	0.714521	0.328143	315.103973
9281.062276	0.254850	0.328143	556.701660
9281.063183	0.249210	0.328143	782.735352
9281.064098	0.472291	0.328143	1214.881836
9281.064987	0.101843	0.328143	1305.420532
9281.065927	0.099932	0.328143	1399.356323
9281.066835	0.101133	0.328143	1491.184937
9281.067737	0.101565	0.328143	1582.796509
9281.068626	0.100935	0.328143	1672.527832
9281.069573	0.099357	0.328143	1766.618652
9281.070477	0.100433	0.328143	1857.410400
9281.071375	0.100979	0.328143	1948.089600
9281.072314	0.099456	0.328143	2041.478394
9281.073217	0.098932	0.328143	2130.813965
9282.070993	0.689491	0.340446	305.444489
9282.071896	0.254821	0.340446	535.547485
9282.072846	0.249038	0.340446	772.133667
9282.073782	0.473379	0.340446	1215.216309
9282.074685	0.100664	0.340446	1306.115967
9282.075571	0.100210	0.340446	1394.901978
9282.076516	0.099441	0.340446	1488.873657
9282.077418	0.100917	0.340446	1579.900513
9282.078313	0.101210	0.340446	1670.483154
9282.079261	0.100400	0.340446	1765.662720
9282.080163	0.099507	0.340446	1855.417847
9282.081061	0.101448	0.340446	1946.517944
9282.081952	0.100756	0.340446	2036.291260
9282.082889	0.099115	0.340446	2129.162109
9283.089880	0.672803	0.330222	299.397186
9283.090787	0.254729	0.330222	530.436401
9283.091681	0.249445	0.330222	753.439819
9283.092638	0.484091	0.330222	1216.714478
9283.093551	0.099943	0.330222	1307.962158
9283.094441	0.102122	0.330222	1398.850342
9283.095373	0.100151	0.330222	1492.191406
9283.096279	0.099686	0.330222	1582.507202
9283.097175	0.102909	0.330222	1674.713623
9283.098067	0.102056	0.330222	1765.747314
9283.099005	0.099390	0.330222	1858.974854
9283.099900	0.099719	0.330222	1948.223511
9283.100804	0.101162	0.330222	2039.674072
9283.101696	0.100020	0.330222	2128.891602
9284.112865	0.692930	0.330117	315.283020
9284.113769	0.255190	0.330117	545.975159
9284.114671	0.249946	0.330117	771.426697
9284.115614	0.425962	0.330117	1173.108765
9284.116535	0.099573	0.330117	1264.815308
9284.117442	0.101213	0.330117	1356.615845
9284.118330	0.101799	0.330117	1447.013672
9284.119261	0.099727	0.330117	1539.859131
9284.120172	0.101162	0.330117	1632.017822
9284.121065	0.100884	0.330117	1722.107056
9284.121950	0.100635	0.330117	1811.168823
9284.122896	0.098862	0.330117	1904.692627
9284.123792	0.101444	0.330117	1995.586548
9284.124681	0.101224	0.330117	2085.574951
9285.119460	0.673129	0.332131	302.907898
9285.120364	0.254685	0.332131	533.143188
9285.121261	0.249272	0.332131	756.740601
9285.122243	0.470328	0.332131	1218.603027
9285.123147	0.099371	0.332131	1308.434692
9285.124044	0.101532	0.332131	1399.508911
9285.124942	0.100975	0.332131	1490.184814
9285.125881	0.099302	0.332131	1583.429199
9285.126794	0.100825	0.332131	1675.482544
9285.127691	0.102660	0.332131	1767.568481
9285.128634	0.099613	0.332131	1861.503540
9285.129541	0.099089	0.332131	1951.377563
9285.130440	0.101041	0.332131	2042.213623
9285.131328	0.101202	0.332131	2132.081299
9286.150608	0.716239	0.327478	317.293854
9286.151505	0.254601	0.327478	545.670776
9286.152474	0.248796	0.327478	786.754517
9286.153391	0.477363	0.327478	1224.496704
9286.154286	0.100807	0.327478	1314.718872
9286.155225	0.099576	0.327478	1408.221069
9286.156128	0.099401	0.327478	1497.979858
9286.157030	0.100939	0.327478	1589.026611
9286.157918	0.100148	0.327478	1677.957764
9286.158863	0.099020	0.327478	1771.531494
9286.159770	0.100027	0.327478	1862.255859
9286.160665	0.101173	0.327478	1952.805786
9286.161581	0.100312	0.327478	2044.692017
9286.162505	0.099027	0.327478	2136.193115
9287.156177	0.688971	0.341944	305.903107
9287.157082	0.254854	0.341944	536.545532
9287.157977	0.249624	0.341944	759.959045
9287.158945	0.479806	0.341944	1224.411133
9287.159855	0.100455	0.341944	1315.825439
9287.160745	0.101550	0.341944	1406.205200
9287.161684	0.100452	0.341944	1500.529297
9287.162598	0.099672	0.341944	1591.629150
9287.163502	0.102378	0.341944	1684.178833
9287.164393	0.101353	0.341944	1774.483887
9287.165330	0.099137	0.341944	1867.375244
9287.166228	0.099514	0.341944	1956.739014
9287.167137	0.100602	0.341944	2048.186035
9287.168024	0.100583	0.341944	2137.403564
9288.183267	0.662805	0.332651	304.227570
9288.184166	0.254861	0.332651	533.347473
9288.185119	0.248877	0.332651	770.527222
9288.186043	0.456753	0.332651	1192.566895
9288.186935	0.100950	0.332651	1282.614014
9288.187829	0.100715	0.332651	1372.653564
9288.188767	0.099357	0.332651	1465.850098
9288.189672	0.100935	0.332651	1557.196289
9288.190569	0.101396	0.332651	1648.148926
9288.191498	0.100796	0.332651	1741.788330
9288.192402	0.098895	0.332651	1831.189697
9288.193295	0.101089	0.332651	1921.462036
9288.194184	0.101019	0.332651	2011.268188
9288.195140	0.098910	0.332651	2105.826172
9289.196998	0.718755	0.349868	311.939606
9289.197921	0.254791	0.349868	547.111938
9289.198888	0.248983	0.349868	787.878662
9289.199814	0.462843	0.349868	1216.471313
9289.200709	0.100668	0.349868	1306.568970
9289.201650	0.099888	0.349868	1400.563232
9289.202553	0.100118	0.349868	1490.970215
9289.203449	0.101572	0.349868	1581.979004
9289.204335	0.100525	0.349868	1671.044067
9289.205264	0.099020	0.349868	1763.033447
9289.206167	0.100441	0.349868	1853.731323
9289.207067	0.101268	0.349868	1944.872803
9289.207990	0.099683	0.349868	2036.879883
9289.208903	0.098793	0.349868	2127.077637
9290.209756	0.691143	0.335007	314.469879
9290.210652	0.254604	0.335007	542.595520
9290.211613	0.248709	0.335007	781.604370
9290.212524	0.472097	0.335007	1211.684937
9290.213416	0.101547	0.335007	1302.264526
9290.214306	0.101459	0.335007	1392.562744
9290.215258	0.099792	0.335007	1487.565186
9290.216167	0.100598	0.335007	1579.008911
9290.217067	0.102231	0.335007	1671.017212
9290.218001	0.100302	0.335007	1764.698853
9290.218899	0.098965	0.335007	1853.569336
9290.219803	0.100496	0.335007	1944.417358
9290.220690	0.100547	0.335007	2033.602417
9290.221642	0.098676	0.335007	2127.541504
9291.241968	0.636808	0.349839	298.662872
9291.242886	0.255432	0.349839	533.149536
9291.243792	0.249100	0.349839	758.834412
9291.244745	0.478092	0.349839	1214.456055
9291.245645	0.099331	0.349839	1303.854004
9291.246548	0.102166	0.349839	1396.109497
9291.247437	0.101213	0.349839	1486.088135
9291.248392	0.099565	0.349839	1581.173096
9291.249298	0.100294	0.349839	1672.039673
9291.250191	0.101649	0.349839	1762.812378
9291.251110	0.099690	0.349839	1854.427490
9291.252027	0.099042	0.349839	1945.248779
9291.252930	0.101591	0.349839	2036.985107
9291.253823	0.102008	0.349839	2128.078369
9292.237256	0.728639	0.332296	319.143860
9292.238227	0.255487	0.332296	567.221802
9292.239143	0.248921	0.332296	795.233337
9292.240045	0.471819	0.332296	1220.813965
9292.240954	0.100214	0.332296	1311.908203
9292.241889	0.099686	0.332296	1405.114868
9292.242800	0.101887	0.332296	1497.934082
9292.243694	0.101536	0.332296	1588.706909
9292.244613	0.099946	0.332296	1680.557495
9292.245521	0.099269	0.332296	1770.693604
9292.246436	0.101027	0.332296	1863.132935
9292.247326	0.100851	0.332296	1952.890137
9292.248282	0.099210	0.332296	2047.735107
9292.249185	0.099950	0.332296	2137.989990
9293.283791	0.720439	0.330169	317.713776
9293.284761	0.255249	0.330169	565.305298
9293.285679	0.248873	0.330169	793.770996
9293.286587	0.453669	0.330169	1205.702881
9293.287491	0.100038	0.330169	1296.137085
9293.288420	0.099639	0.330169	1388.701416
9293.289330	0.101290	0.330169	1480.875610
9293.290230	0.101656	0.330169	1572.366455
9293.291167	0.099650	0.330169	1665.738159
9293.292075	0.099141	0.330169	1755.757812
9293.292973	0.101587	0.330169	1846.982910
9293.293862	0.100635	0.330169	1936.447266
9293.294805	0.099045	0.330169	2029.847046
9293.295719	0.099987	0.330169	2121.234863
9294.269900	0.714104	0.337831	313.491669
9294.270840	0.254407	0.337831	552.634033
9294.271762	0.248650	0.337831	781.889282
9294.272684	0.443210	0.337831	1190.529297
9294.273574	0.100631	0.337831	1280.090942
9294.274513	0.099412	0.337831	1373.438477
9294.275415	0.100364	0.337831	1463.966553
9294.276315	0.102037	0.337831	1555.800171
9294.277204	0.100690	0.337831	1645.313354
9294.278153	0.099261	0.337831	1739.512451
9294.279057	0.099946	0.337831	1829.863892
9294.279954	0.101312	0.337831	1920.740967
9294.280889	0.099554	0.337831	2013.824341
9294.281785	0.098950	0.337831	2102.483643
9295.315418	0.686942	0.331676	303.628418
9295.316317	0.255187	0.331676	533.041321
9295.317250	0.249624	0.331676	765.940552
9295.318147	0.466190	0.331676	1184.113159
9295.319098	0.100247	0.331676	1279.447632
9295.319992	0.101049	0.331676	1369.785034
9295.320886	0.102356	0.331676	1461.291260
9295.321828	0.099855	0.331676	1555.354370
9295.322737	0.100294	0.331676	1646.521729
9295.323658	0.100668	0.331676	1739.236694
9295.324550	0.101122	0.331676	1829.437378
9295.325505	0.099814	0.331676	1924.760132
9295.326408	0.102195	0.331676	2017.042114
9295.327295	0.101550	0.331676	2107.117187
9296.307717	0.563855	0.356547	277.416626
9296.308627	0.254912	0.356547	509.386658
9296.309537	0.248350	0.356547	735.384766
9296.310436	0.484629	0.356547	1171.066162
9296.311387	0.098914	0.356547	1265.132935
9296.312303	0.101254	0.356547	1357.881348
9296.313191	0.102239	0.356547	1448.669434
9296.314119	0.099705	0.356547	1541.195312
9296.315022	0.099540	0.356547	1631.079712
9296.315925	0.102125	0.356547	1723.298828
9296.316816	0.101100	0.356547	1813.378784
9296.317745	0.098826	0.356547	1905.187866
9296.318645	0.099569	0.356547	1994.800049
9296.319549	0.101466	0.356547	2086.525391
9297.348063	0.636460	0.336369	287.679901
9297.348985	0.255396	0.336369	523.154541
9297.349890	0.249565	0.336369	749.011230
9297.350799	0.440885	0.336369	1149.775635
9297.351752	0.098763	0.336369	1243.897217
9297.352657	0.101375	0.336369	1335.641113
9297.353545	0.102297	0.336369	1426.481201
9297.354472	0.099584	0.336369	1518.795288
9297.355383	0.100759	0.336369	1610.587036
9297.356285	0.101503	0.336369	1702.142456
9297.357174	0.101777	0.336369	1792.622559
9297.358124	0.099038	0.336369	1886.708740
9297.359034	0.100917	0.336369	1978.542969
9297.359940	0.101847	0.336369	2070.816406
9298.348490	0.705315	0.350488	311.043884
9298.349400	0.254905	0.350488	543.007202
9298.350308	0.249441	0.350488	769.499512
9298.351274	0.486486	0.350488	1239.444580
9298.352180	0.099961	0.350488	1330.009155
9298.353076	0.101631	0.350488	1421.070435
9298.354012	0.099789	0.350488	1514.472778
9298.354916	0.099349	0.350488	1604.284668
9298.355812	0.101807	0.350488	1695.503418
9298.356700	0.101825	0.350488	1785.923950
9298.357631	0.099086	0.350488	1878.172729
9298.358545	0.099686	0.350488	1969.286011
9298.359449	0.100712	0.350488	2060.329346
9298.360363	0.099620	0.350488	2151.382324
9299.377662	0.695332	0.334371	341.408020
9299.378591	0.254941	0.334371	578.248596
9299.379497	0.248507	0.334371	803.395996
9299.380399	0.487284	0.334371	1242.926147
9299.381348	0.098895	0.334371	1336.777710
9299.382245	0.101470	0.334371	1427.796021
9299.383131	0.101993	0.334371	1518.162231
9299.384058	0.101224	0.334371	1611.997192
9299.384979	0.099653	0.334371	1703.777954
9299.385890	0.100869	0.334371	1795.669678
9299.386782	0.100876	0.334371	1885.651489
9299.387719	0.099038	0.334371	1978.450195
9299.388638	0.100448	0.334371	2070.761963
9299.389539	0.100642	0.334371	2161.440430
9300.389321	0.719117	0.339084	312.096954
9300.390270	0.254963	0.339084	554.057190
9300.391191	0.249163	0.339084	783.535950
9300.392096	0.481974	0.339084	1219.722290
9300.392981	0.100924	0.339084	1309.040039
9300.393937	0.099862	0.339084	1404.508179
9300.394835	0.100521	0.339084	1494.776245
9300.395739	0.102052	0.339084	1587.031250
9300.396626	0.100045	0.339084	1675.771362
9300.397566	0.099335	0.339084	1769.145996
9300.398460	0.100529	0.339084	1859.018555
9300.399357	0.100602	0.339084	1949.258423
9300.400289	0.099419	0.339084	2041.916870
9300.401193	0.098870	0.339084	2131.294922
9301.408212	0.687323	0.332107	307.233368
9301.409123	0.255121	0.332107	539.648437
9301.410016	0.249814	0.332107	762.732727
9301.410984	0.475920	0.332107	1223.423584
9301.411889	0.100316	0.332107	1314.209717
9301.412788	0.102275	0.332107	1406.155273
9301.413675	0.101232	0.332107	1495.947754
9301.414609	0.099825	0.332107	1589.184692
9301.415512	0.102140	0.332107	1681.416992
9301.416401	0.101876	0.332107	1771.984985
9301.417337	0.099496	0.332107	1865.113037
9301.418256	0.100448	0.332107	1957.424805
9301.419162	0.101334	0.332107	2049.233643
9301.420051	0.101616	0.332107	2139.570557
9302.429132	0.720220	0.338351	314.015808
9302.430086	0.254700	0.338351	556.999329
9302.430999	0.248793	0.338351	784.147095
9302.431910	0.484208	0.338351	1225.260376
9302.432803	0.100642	0.338351	1315.133789
9302.433740	0.099536	0.338351	1408.399170
9302.434646	0.099869	0.338351	1498.880859
9302.435547	0.101448	0.338351	1590.285278
9302.436432	0.100594	0.338351	1679.311401
9302.437380	0.099177	0.338351	1773.331421
9302.438285	0.100869	0.338351	1864.618042
9302.439180	0.101543	0.338351	1955.499023
9302.440119	0.099752	0.338351	2049.166260
9302.441011	0.099064	0.338351	2137.531006
9303.439822	0.714364	0.334806	317.177612
9303.440776	0.255421	0.334806	560.849365
9303.441699	0.248888	0.334806	790.572937
9303.442610	0.472928	0.334806	1221.410767
9303.443496	0.100195	0.334806	1310.183838
9303.444444	0.099851	0.334806	1404.842651
9303.445344	0.102184	0.334806	1496.808105
9303.446230	0.101239	0.334806	1586.505859
9303.447161	0.100049	0.334806	1679.651367
9303.448067	0.099705	0.334806	1769.983765
9303.448974	0.101125	0.334806	1861.704590
9303.449866	0.101671	0.334806	1952.395264
9303.450812	0.098694	0.334806	2045.759644
9303.451723	0.099866	0.334806	2136.737305
9304.465862	0.714060	0.335511	312.044250
9304.466833	0.255212	0.335511	559.855469
9304.467744	0.248771	0.335511	786.485596
9304.468657	0.467303	0.335511	1213.133667
9304.469542	0.100184	0.335511	1301.796753
9304.470480	0.099617	0.335511	1395.237183
9304.471390	0.100023	0.335511	1486.258301
9304.472290	0.100778	0.335511	1576.958130
9304.473225	0.100704	0.335511	1671.116699
9304.474130	0.099404	0.335511	1761.077637
9304.475036	0.100964	0.335511	1852.551392
9304.475923	0.100613	0.335511	1941.794922
9304.476884	0.099122	0.335511	2037.051514
9304.477785	0.099496	0.335511	2126.697266
9305.471443	0.690626	0.344542	305.947418
9305.472346	0.254967	0.344542	536.182678
9305.473240	0.249668	0.344542	759.385864
9305.474213	0.487592	0.344542	1233.812500
9305.475120	0.100895	0.344542	1325.324097
9305.476009	0.101755	0.344542	1415.784668
9305.476949	0.101136	0.344542	1510.852905
9305.477853	0.100730	0.344542	1601.912842
9305.478744	0.101375	0.344542	1692.237549
9305.479634	0.100712	0.344542	1781.870972
9305.480575	0.099064	0.344542	1875.089966
9305.481487	0.099836	0.344542	1966.140747
9305.482387	0.101946	0.344542	2057.892090
9305.483274	0.099639	0.344542	2146.271484
9306.501579	0.718385	0.337186	313.934235
9306.502477	0.254290	0.337186	542.286255
9306.503463	0.248273	0.337186	787.083130
9306.504392	0.471467	0.337186	1225.076172
9306.505283	0.100946	0.337186	1315.019043
9306.506190	0.100521	0.337186	1406.191772
9306.507108	0.099745	0.337186	1497.757568
9306.508017	0.101682	0.337186	1590.186646
9306.508917	0.103085	0.337186	1682.962891
9306.509841	0.099686	0.337186	1775.072998
9306.510745	0.099415	0.337186	1864.944458
9306.511648	0.101803	0.337186	1956.872559
9306.512538	0.101803	0.337186	2047.477173
9306.513484	0.098998	0.337186	2141.129150
9307.507197	0.721707	0.351108	352.192780
9307.508113	0.255271	0.351108	586.020996
9307.509034	0.248709	0.351108	815.081543
9307.509944	0.466436	0.351108	1239.537842
9307.510897	0.099302	0.351108	1334.172363
9307.511804	0.101741	0.351108	1426.451172
9307.512725	0.102319	0.351108	1520.687256
9307.513629	0.100690	0.351108	1611.710693
9307.514567	0.100730	0.351108	1706.195435
9307.515461	0.101169	0.351108	1796.640869
9307.516351	0.100715	0.351108	1886.277466
9307.517288	0.098859	0.351108	1978.907959
9307.518199	0.100298	0.351108	2070.279297
9307.519119	0.100448	0.351108	2162.691406
9308.536327	0.623903	0.336433	311.327362
9308.537252	0.255311	0.336433	547.490295
9308.538168	0.248566	0.336433	775.176453
9308.539073	0.476561	0.336433	1206.464478
9308.540034	0.099115	0.336433	1301.713989
9308.540939	0.101375	0.336433	1393.457886
9308.541834	0.102349	0.336433	1485.059937
9308.542755	0.100693	0.336433	1577.798584
9308.543659	0.099470	0.336433	1667.719604
9308.544570	0.101254	0.336433	1759.961670
9308.545470	0.101730	0.336433	1851.518433
9308.546402	0.099137	0.336433	1943.914062
9308.547307	0.099155	0.336433	2033.649536
9308.548210	0.100195	0.336433	2124.125977
9309.538766	0.728346	0.351713	320.472198
9309.539705	0.255048	0.351713	559.961914
9309.540622	0.249218	0.351713	788.494385
9309.541538	0.491331	0.351713	1238.553223
9309.542420	0.100122	0.351713	1326.860840
9309.543375	0.099807	0.351713	1422.176636
9309.544278	0.101056	0.351713	1513.430176
9309.545173	0.101799	0.351713	1604.540527
9309.546118	0.099661	0.351713	1698.719849
9309.547017	0.099027	0.351713	1787.745239
9309.547919	0.101378	0.351713	1879.188354
9309.548809	0.101147	0.351713	1969.209595
9309.549750	0.098727	0.351713	2062.111572
9309.550651	0.099272	0.351713	2151.556152
9310.570969	0.659077	0.331648	299.880096
9310.571869	0.255190	0.331648	529.551514
9310.572810	0.249397	0.331648	764.234070
9310.573732	0.491763	0.331648	1217.639282
9310.574633	0.101327	0.331648	1308.934814
9310.575524	0.102806	0.331648	1400.535278
9310.576467	0.099760	0.331648	1494.608521
9310.577370	0.100605	0.331648	1585.455200
9310.578268	0.101814	0.331648	1676.884155
9310.579194	0.100997	0.331648	1770.407715
9310.580112	0.098958	0.331648	1861.250732
9310.581021	0.100507	0.331648	1952.611206
9310.581920	0.100408	0.331648	2042.877686
9310.582864	0.098573	0.331648	2135.930664
9311.575496	0.706498	0.345118	309.446045
9311.576464	0.255205	0.345118	556.484558
9311.577390	0.248441	0.345118	786.541077
9311.578305	0.486116	0.345118	1231.336914
9311.579241	0.099250	0.345118	1324.235352
9311.580151	0.099543	0.345118	1414.819946
9311.581053	0.101437	0.345118	1506.315918
9311.581941	0.101656	0.345118	1596.586914
9311.582886	0.099119	0.345118	1690.254028
9311.583789	0.099397	0.345118	1780.009521
9311.584689	0.101763	0.345118	1871.595947
9311.585576	0.100807	0.345118	1961.011597
9311.586510	0.098749	0.345118	2053.242920
9311.587420	0.100851	0.345118	2145.017090
9312.605696	0.715170	0.327269	353.293823
9312.606626	0.255637	0.327269	591.036438
9312.607534	0.248925	0.327269	817.059937
9312.608432	0.485896	0.327269	1253.394531
9312.609391	0.099034	0.327269	1348.368530
9312.610287	0.100496	0.327269	1438.412598
9312.611183	0.102286	0.327269	1530.061157
9312.612069	0.101107	0.327269	1619.642090
9312.613015	0.099232	0.327269	1713.515747
9312.613909	0.100382	0.327269	1803.257324
9312.614808	0.101290	0.327269	1894.317261
9312.615736	0.100089	0.327269	1987.199951
9312.616639	0.098888	0.327269	2076.495850
9312.617538	0.100726	0.327269	2167.048828
9313.611214	0.718583	0.336582	314.739258
9313.612110	0.254802	0.336582	543.042114
9313.613064	0.249185	0.336582	780.764160
9313.613988	0.491327	0.336582	1234.750244
9313.614889	0.102041	0.336582	1326.689209
9313.615817	0.099921	0.336582	1419.415527
9313.616722	0.099598	0.336582	1509.552002
9313.617625	0.101583	0.336582	1601.281738
9313.618511	0.100898	0.336582	1690.677734
9313.619463	0.099067	0.336582	1784.989868
9313.620368	0.099847	0.336582	1875.351807
9313.621260	0.101602	0.336582	1965.980347
9313.622179	0.099650	0.336582	2057.558350
9313.623092	0.099174	0.336582	2148.103760
9314.641360	0.704879	0.330427	310.851715
9314.642257	0.254916	0.330427	539.511169
9314.643208	0.249250	0.330427	776.548340
9314.644124	0.487266	0.330427	1222.883667
9314.645045	0.102052	0.330427	1316.873535
9314.645930	0.101854	0.330427	1407.014526
9314.646870	0.100470	0.330427	1501.456299
9314.647781	0.100642	0.330427	1593.141235
9314.648668	0.101202	0.330427	1682.907715
9314.649622	0.098990	0.330427	1777.344604
9314.650528	0.100455	0.330427	1868.357178
9314.651425	0.100529	0.330427	1958.531250
9314.652314	0.101433	0.330427	2048.705322
9314.653241	0.099298	0.330427	2140.754639
9315.647951	0.720388	0.331760	316.970795
9315.648911	0.255033	0.331760	561.802429
9315.649833	0.248881	0.331760	791.270386
9315.650742	0.479520	0.331760	1227.154297
9315.651628	0.099503	0.331760	1315.314087
9315.652572	0.099650	0.331760	1409.383423
9315.653481	0.100309	0.331760	1500.564209
9315.654382	0.101946	0.331760	1592.417358
9315.655290	0.102389	0.331760	1685.386475
9315.656220	0.099686	0.331760	1778.094727
9315.657126	0.100331	0.331760	1868.994385
9315.658018	0.100979	0.331760	1959.067627
9315.658960	0.099371	0.331760	2052.675537
9315.659864	0.099320	0.331760	2142.460937
9316.675033	0.679120	0.338427	302.208344
9316.675934	0.254773	0.338427	531.758789
9316.676882	0.249016	0.338427	767.826050
9316.677793	0.485112	0.338427	1209.763306
9316.678720	0.101334	0.338427	1303.700195
9316.679612	0.101884	0.338427	1394.580322
9316.680565	0.101766	0.338427	1491.563721
9316.681489	0.101382	0.338427	1585.240479
9316.682379	0.102059	0.338427	1676.073242
9316.683293	0.101005	0.338427	1768.391479
9316.684211	0.100488	0.338427	1860.639771
9316.685128	0.101492	0.338427	1953.707642
9316.686029	0.101254	0.338427	2044.937134
9316.686961	0.100254	0.338427	2138.373779
9317.687751	0.718883	0.329420	311.276367
9317.688701	0.254960	0.329420	553.488098
9317.689614	0.249214	0.329420	781.020386
9317.690522	0.487324	0.329420	1223.510742
9317.691409	0.100404	0.329420	1312.569092
9317.692373	0.099807	0.329420	1408.783203
9317.693272	0.101162	0.329420	1499.727905
9317.694173	0.100719	0.329420	1590.475708
9317.695090	0.100748	0.329420	1682.861938
9317.696013	0.099067	0.329420	1774.301147
9317.696919	0.101012	0.329420	1865.817993
9317.697815	0.101631	0.329420	1956.879272
9317.698741	0.099012	0.329420	2048.564697
9317.699638	0.098621	0.329420	2137.027344
9318.704586	0.728635	0.348353	319.142242
9318.705549	0.255410	0.348353	565.102234
9318.706472	0.248873	0.348353	794.812256
9318.707385	0.488115	0.348353	1240.461426
9318.708299	0.100594	0.348353	1332.404785
9318.709235	0.099708	0.348353	1425.731689
9318.710139	0.100225	0.348353	1516.334717
9318.711039	0.102242	0.348353	1608.352905
9318.711983	0.099679	0.348353	1702.449829
9318.712880	0.099152	0.348353	1791.388794
9318.713783	0.101254	0.348353	1882.820801
9318.714669	0.100349	0.348353	1971.730103
9318.715595	0.098837	0.348353	2063.252930
9318.716501	0.100225	0.348353	2154.056396
9319.728585	0.723373	0.331196	313.943817
9319.729535	0.255341	0.331196	556.517334
9319.730459	0.249111	0.331196	786.696167
9319.731396	0.482516	0.331196	1238.813477
9319.732279	0.099727	0.331196	1326.872070
9319.733230	0.100228	0.331196	1422.189209
9319.734131	0.101561	0.331196	1513.695923
9319.735024	0.102118	0.331196	1604.887207
9319.735945	0.099781	0.331196	1696.786011
9319.736856	0.101107	0.331196	1788.894653
9319.737777	0.101364	0.331196	1882.250488
9319.738675	0.101235	0.331196	1973.159790
9319.739612	0.099551	0.331196	2066.438965
9319.740528	0.101543	0.331196	2159.452393
9320.734155	0.719125	0.355693	312.819244
9320.735090	0.255037	0.355693	551.278503
9320.736010	0.249360	0.355693	780.690002
9320.736923	0.487394	0.355693	1225.680542
9320.737812	0.101217	0.355693	1315.662476
9320.738765	0.099957	0.355693	1410.921753
9320.739673	0.100986	0.355693	1502.617310
9320.740570	0.102283	0.355693	1594.364868
9320.741489	0.100206	0.355693	1686.454468
9320.742394	0.099144	0.355693	1776.180054
9320.743306	0.100917	0.355693	1868.216064
9320.744202	0.101224	0.355693	1958.913086
9320.745140	0.099203	0.355693	2051.965332
9320.746049	0.098873	0.355693	2141.841064
9321.770443	0.719220	0.318467	312.860687
9321.771364	0.254513	0.318467	547.267090
9321.772299	0.249027	0.318467	780.107422
9321.773228	0.483010	0.318467	1228.823975
9321.774121	0.101045	0.318467	1319.057129
9321.775068	0.100254	0.318467	1413.997559
9321.775968	0.099719	0.318467	1503.744873
9321.776872	0.102037	0.318467	1595.986694
9321.777761	0.100635	0.318467	1685.451050
9321.778711	0.099144	0.318467	1779.638184
9321.779620	0.100100	0.318467	1870.629150
9321.780510	0.101704	0.318467	1961.145752
9321.781443	0.099481	0.318467	2053.961670
9321.782357	0.098760	0.318467	2144.228027
9322.761734	0.563558	0.356692	278.397827
9322.762647	0.255443	0.356692	511.617371
9322.763549	0.249071	0.356692	736.279419
9322.764453	0.471702	0.356692	1162.697754
9322.765421	0.098730	0.356692	1258.268799
9322.766328	0.101678	0.356692	1350.491211
9322.767223	0.101862	0.356692	1441.657349
9322.768146	0.100228	0.356692	1534.168091
9322.769046	0.099390	0.356692	1623.618774
9322.769944	0.101444	0.356692	1714.715576
9322.770831	0.100756	0.356692	1804.085815
9322.771768	0.098998	0.356692	1896.846802
9322.772665	0.099935	0.356692	1986.488770
9322.773562	0.102041	0.356692	2078.019531
9323.808258	0.568272	0.317134	280.726135
9323.809177	0.255271	0.317134	515.320190
9323.810078	0.248862	0.317134	739.545166
9323.810980	0.488815	0.317134	1180.456055
9323.811922	0.098815	0.317134	1273.539551
9323.812825	0.100188	0.317134	1364.009277
9323.813724	0.101301	0.317134	1455.079102
9323.814660	0.100144	0.317134	1548.813965
9323.815567	0.099163	0.317134	1638.754395
9323.816469	0.101979	0.317134	1730.739258
9323.817359	0.101752	0.317134	1821.298340
9323.818306	0.099335	0.317134	1915.368286
9323.819210	0.099595	0.317134	2005.401855
9323.820103	0.101418	0.317134	2095.968506
9324.793294	0.714327	0.350742	315.732697
9324.794189	0.254934	0.350742	543.898682
9324.795145	0.249185	0.350742	782.119141
9324.796074	0.492444	0.350742	1239.599487
9324.796971	0.100979	0.350742	1330.177612
9324.797918	0.100020	0.350742	1424.896118
9324.798823	0.099324	0.350742	1514.784058
9324.799721	0.101781	0.350742	1606.183350
9324.800607	0.102045	0.350742	1696.594971
9324.801554	0.099338	0.350742	1790.668457
9324.802457	0.099613	0.350742	1880.619019
9324.803355	0.102458	0.350742	1972.626709
9324.804240	0.101316	0.350742	2062.291260
9324.805169	0.099119	0.350742	2154.372559
9325.844957	0.687286	0.325259	309.278870
9325.845878	0.255209	0.325259	544.326172
9325.846776	0.249540	0.325259	768.412903
9325.847736	0.410603	0.325259	1162.591797
9325.848639	0.098906	0.325259	1251.904175
9325.849538	0.101371	0.325259	1343.036621
9325.850426	0.102513	0.325259	1434.068604
9325.851352	0.099620	0.325259	1526.317017
9325.852266	0.100280	0.325259	1617.972534
9325.853173	0.102290	0.325259	1710.749634
9325.854062	0.101122	0.325259	1800.646973
9325.855005	0.099298	0.325259	1894.285034
9325.855917	0.101038	0.325259	1986.431274
9325.856809	0.101115	0.325259	2076.625488
9326.830037	0.706692	0.336816	311.651123
9326.830931	0.254930	0.336816	539.558899
9326.831896	0.249240	0.336816	780.075012
9326.832809	0.462748	0.336816	1202.563721
9326.833699	0.101283	0.336816	1292.705566
9326.834612	0.102367	0.336816	1386.166626
9326.835542	0.101177	0.336816	1480.260986
9326.836453	0.101177	0.336816	1572.432983
9326.837339	0.101437	0.336816	1662.305908
9326.838264	0.099811	0.336816	1754.630859
9326.839165	0.100280	0.336816	1844.982666
9326.840063	0.101437	0.336816	1936.072876
9326.840950	0.100594	0.336816	2025.300171
9326.841913	0.098723	0.336816	2120.370605
9327.874547	0.608291	0.341449	284.071899
9327.875470	0.255308	0.341449	519.720825
9327.876381	0.249012	0.341449	746.571167
9327.877279	0.473328	0.341449	1171.619385
9327.878236	0.098785	0.341449	1266.156982
9327.879135	0.101147	0.341449	1357.088501
9327.880034	0.101799	0.341449	1448.606079
9327.880961	0.099858	0.341449	1541.174805
9327.881866	0.099302	0.341449	1631.042847
9327.882767	0.101744	0.341449	1722.714600
9327.883655	0.101012	0.341449	1812.413208
9327.884608	0.099382	0.341449	1907.124512
9327.885508	0.099683	0.341449	1996.838867
9327.886408	0.101177	0.341449	2087.897949
9328.872920	0.672469	0.331293	300.593842
9328.873819	0.254927	0.331293	529.773010
9328.874771	0.249294	0.331293	767.101318
9328.875701	0.481128	0.331293	1214.550293
9328.876595	0.100763	0.331293	1304.632324
9328.877484	0.100950	0.331293	1394.376587
9328.878427	0.099653	0.331293	1488.349609
9328.879324	0.103209	0.331293	1580.928223
9328.880219	0.101206	0.331293	1671.507690
9328.881138	0.101210	0.331293	1764.519409
9328.882058	0.099734	0.331293	1856.274536
9328.882964	0.100730	0.331293	1947.535889
9328.883854	0.101759	0.331293	2038.101440
9328.884789	0.099221	0.331293	2130.873291
9329.903055	0.714203	0.349993	312.106659
9329.903998	0.254843	0.349993	552.423157
9329.904917	0.249031	0.349993	781.282410
9329.905828	0.466696	0.349993	1206.442017
9329.906716	0.100814	0.349993	1295.965088
9329.907666	0.099595	0.349993	1390.580078
9329.908576	0.099836	0.349993	1481.431274
9329.909475	0.101213	0.349993	1572.422119
9329.910365	0.100565	0.349993	1661.925171
9329.911319	0.099170	0.349993	1756.533325
9329.912228	0.100488	0.349993	1847.877197
9329.913122	0.101279	0.349993	1938.420898
9329.914053	0.099957	0.349993	2031.481079
9329.914949	0.098925	0.349993	2120.117432
9330.916809	0.719670	0.328808	314.495941
9330.917704	0.254429	0.328808	542.209656
9330.918688	0.248547	0.328808	786.780273
9330.919610	0.481813	0.328808	1231.011597
9330.920502	0.102004	0.328808	1321.999512
9330.921441	0.100854	0.328808	1416.701904
9330.922357	0.100928	0.328808	1509.151733
9330.923253	0.102268	0.328808	1600.783936
9330.924144	0.102620	0.328808	1692.218018
9330.925089	0.099192	0.328808	1785.954346
9330.925988	0.101060	0.328808	1876.806885
9330.926905	0.101927	0.328808	1970.274414
9330.927800	0.100283	0.328808	2060.027832
9330.928753	0.100481	0.328808	2155.786133
9331.930642	0.682815	0.354065	349.601257
9331.931561	0.255227	0.354065	584.154907
9331.932464	0.248419	0.354065	808.477417
9331.933364	0.475470	0.354065	1236.400391
9331.934315	0.099082	0.354065	1330.627441
9331.935217	0.100811	0.354065	1421.558594
9331.936118	0.101913	0.354065	1513.382080
9331.937048	0.100507	0.354065	1606.853271
9331.937961	0.099229	0.354065	1697.448853
9331.938868	0.100983	0.354065	1789.040161
9331.939768	0.100972	0.354065	1879.914673
9331.940709	0.098976	0.354065	1973.050903
9331.941611	0.098917	0.354065	2062.274170
9331.942512	0.102495	0.354065	2154.622314
9332.955606	0.690040	0.329605	307.757965
9332.956503	0.255059	0.329605	536.545532
9332.957461	0.249163	0.329605	775.243286
9332.958391	0.473324	0.329605	1215.434570
9332.959296	0.101990	0.329605	1307.735352
9332.960208	0.100430	0.329605	1399.327271
9332.961137	0.099558	0.329605	1491.816772
9332.962042	0.101294	0.329605	1583.487793
9332.962933	0.102125	0.329605	1674.481445
9332.963864	0.099730	0.329605	1767.330322
9332.964765	0.099269	0.329605	1856.771484
9332.965662	0.101583	0.329605	1947.891602
9332.966554	0.100800	0.329605	2037.804810
9332.967496	0.099163	0.329605	2131.216064
9333.961181	0.664266	0.351862	298.255585
9333.962078	0.254879	0.351862	526.882202
9333.962976	0.249741	0.351862	751.149780
9333.963945	0.483300	0.351862	1219.467041
9333.964855	0.099097	0.351862	1309.645020
9333.965755	0.101356	0.351862	1400.865601
9333.966645	0.101180	0.351862	1490.916138
9333.967596	0.099639	0.351862	1585.672485
9333.968508	0.100536	0.351862	1677.361206
9333.969410	0.101667	0.351862	1769.065308
9333.970344	0.099309	0.351862	1861.819946
9333.971244	0.098767	0.351862	1950.710327
9333.972140	0.100547	0.351862	2040.800293
9333.973031	0.101144	0.351862	2130.919434
9334.993399	0.719539	0.329778	346.817596
9334.994313	0.255132	0.329778	580.008118
9334.995226	0.248815	0.329778	807.175903
9334.996127	0.486932	0.329778	1245.901978
9334.997060	0.099016	0.329778	1338.284058
9334.997963	0.100547	0.329778	1429.077881
9334.998867	0.102821	0.329778	1522.028076
9334.999757	0.101484	0.329778	1612.349121
9335.000716	0.099445	0.329778	1707.716431
9335.001618	0.100496	0.329778	1798.363525
9335.002515	0.102129	0.329778	1889.973145
9335.003441	0.100671	0.329778	1983.194824
9335.004341	0.098965	0.329778	2072.263184
9335.005242	0.100664	0.329778	2162.961426
9335.995852	0.718509	0.340309	309.677582
9335.996804	0.255048	0.340309	552.482910
9335.997719	0.249258	0.340309	780.553833
9335.998629	0.486764	0.340309	1223.509033
9335.999515	0.100829	0.340309	1312.843384
9336.000470	0.099928	0.340309	1408.274658
9336.001361	0.100144	0.340309	1497.502930
9336.002261	0.102206	0.340309	1589.488159
9336.003152	0.101638	0.340309	1680.047729
9336.004105	0.099067	0.340309	1774.458984
9336.005012	0.100144	0.340309	1865.289673
9336.005911	0.100774	0.340309	1955.885376
9336.006848	0.099174	0.340309	2048.811035
9336.007746	0.098668	0.340309	2137.415039
9337.025996	0.728430	0.333674	322.694550
9337.026971	0.255132	0.333674	571.448120
9337.027881	0.248401	0.333674	797.492920
9337.028787	0.482362	0.333674	1234.512939
9337.029673	0.100441	0.333674	1323.503418
9337.030627	0.099749	0.333674	1418.663574
9337.031537	0.101078	0.333674	1510.644409
9337.032435	0.101583	0.333674	1601.866211
9337.033371	0.100188	0.333674	1695.642212
9337.034279	0.099470	0.333674	1785.961182
9337.035182	0.101565	0.333674	1877.674316
9337.036072	0.100499	0.333674	1967.118652
9337.037013	0.098752	0.333674	2060.044678
9337.037913	0.099294	0.333674	2149.409668
9338.034640	0.704996	0.334588	312.313354
9338.035541	0.255084	0.334588	542.144226
9338.036483	0.249532	0.334588	777.203796
9338.037401	0.486921	0.334588	1224.197632
9338.038305	0.100822	0.334588	1315.340332
9338.039197	0.101737	0.334588	1406.089844
9338.040136	0.099569	0.334588	1499.585205
9338.041033	0.099598	0.334588	1588.924927
9338.041929	0.101283	0.334588	1679.674438
9338.042819	0.101514	0.334588	1770.021606
9338.043760	0.099082	0.334588	1863.257812
9338.044671	0.099836	0.334588	1954.208740
9338.045566	0.101686	0.334588	2045.217529
9338.046502	0.100100	0.334588	2138.911133
9339.059710	0.719458	0.340518	351.814972
9339.060624	0.255018	0.340518	584.901733
9339.061545	0.248514	0.340518	813.783508
9339.062445	0.474170	0.340518	1240.536377
9339.063386	0.098969	0.340518	1333.665771
9339.064283	0.100320	0.340518	1423.652710
9339.065189	0.102231	0.340518	1516.274414
9339.066081	0.101173	0.340518	1606.520752
9339.067038	0.099463	0.340518	1701.706787
9339.067942	0.101199	0.340518	1793.190430
9339.068844	0.100836	0.340518	1884.144653
9339.069776	0.100397	0.340518	1977.714355
9339.070680	0.098914	0.340518	2067.132324
9339.071576	0.100115	0.340518	2156.835205
9340.073439	0.663490	0.331043	298.570496
9340.074348	0.255117	0.331043	530.472046
9340.075261	0.249631	0.331043	758.385498
9340.076200	0.392010	0.331043	1126.483398
9340.077130	0.099020	0.331043	1218.571777
9340.078038	0.101093	0.331043	1310.363770
9340.078932	0.101565	0.331043	1401.162842
9340.079869	0.100060	0.331043	1494.918945
9340.080770	0.099642	0.331043	1584.696655
9340.081668	0.102074	0.331043	1676.359131
9340.082559	0.100997	0.331043	1766.347778
9340.083491	0.099316	0.331043	1858.910645
9340.084397	0.100111	0.331043	1949.611328
9340.085296	0.101177	0.331043	2040.569214
9341.091296	0.657407	0.342162	299.777679
9341.092195	0.254919	0.342162	528.950195
9341.093091	0.249452	0.342162	752.459106
9341.094064	0.492250	0.342162	1231.418091
9341.094963	0.101569	0.342162	1322.728271
9341.095850	0.101407	0.342162	1412.676758
9341.096780	0.100312	0.342162	1505.967407
9341.097695	0.100587	0.342162	1598.004639
9341.098602	0.101635	0.342162	1690.187134
9341.099494	0.101316	0.342162	1780.560913
9341.100451	0.099423	0.342162	1875.708374
9341.101349	0.101353	0.342162	1966.722900
9341.102268	0.100422	0.342162	2059.010986
9341.103172	0.099792	0.342162	2149.223389
9342.112204	0.734216	0.331144	320.852509
9342.113146	0.255322	0.331144	561.366089
9342.114068	0.249115	0.331144	791.050110
9342.114979	0.487753	0.331144	1235.392822
9342.115868	0.099683	0.331144	1324.010620
9342.116819	0.099789	0.331144	1418.909790
9342.117727	0.101364	0.331144	1510.947876
9342.118624	0.101576	0.331144	1602.061523
9342.119569	0.099679	0.331144	1696.258179
9342.120470	0.099119	0.331144	1785.564087
9342.121369	0.101162	0.331144	1876.508789
9342.122256	0.101082	0.331144	1966.168091
9342.123190	0.098657	0.331144	2058.313965
9342.124092	0.100170	0.331144	2148.666992
9343.124951	0.675344	0.344373	303.229553
9343.125850	0.255029	0.344373	532.500854
9343.126812	0.249353	0.344373	772.378479
9343.127736	0.484072	0.344373	1219.661255
9343.128631	0.101323	0.344373	1310.345581
9343.129516	0.101078	0.344373	1399.799561
9343.130445	0.099928	0.344373	1492.632690
9343.131350	0.101686	0.344373	1584.658325
9343.132242	0.103107	0.344373	1676.629517
9343.133181	0.099990	0.344373	1770.520386
9343.134098	0.099917	0.344373	1862.144287
9343.134998	0.100803	0.344373	1952.867187
9343.135884	0.101166	0.344373	2042.500000
9343.136828	0.098771	0.344373	2135.739502
9344.148940	0.711808	0.333388	311.771851
9344.149898	0.254982	0.333388	556.044312
9344.150798	0.249082	0.333388	780.218140
9344.151703	0.490825	0.333388	1224.414917
9344.152641	0.099525	0.333388	1317.769531
9344.153550	0.099503	0.333388	1408.217896
9344.154456	0.101624	0.333388	1500.288818
9344.155347	0.101565	0.333388	1590.783203
9344.156304	0.099305	0.333388	1685.818481
9344.157200	0.099705	0.333388	1775.153809
9344.158104	0.102228	0.333388	1867.567749
9344.158992	0.100305	0.333388	1956.638794
9344.159923	0.099104	0.333388	2048.904541
9344.160835	0.099844	0.333388	2139.961914
9345.160661	0.706040	0.344236	315.599884
9345.161565	0.254674	0.344236	545.825256
9345.162462	0.249401	0.344236	769.537598
9345.163425	0.472061	0.344236	1224.131958
9345.164348	0.100316	0.344236	1316.723755
9345.165270	0.100704	0.344236	1409.573120
9345.166156	0.102374	0.344236	1500.276733
9345.167095	0.100283	0.344236	1594.442627
9345.168007	0.101646	0.344236	1687.143311
9345.168932	0.100734	0.344236	1780.321899
9345.169821	0.100554	0.344236	1869.714600
9345.170774	0.100807	0.344236	1965.783569
9345.171681	0.100587	0.344236	2057.016113
9345.172569	0.101107	0.344236	2146.799316
9346.183635	0.704359	0.331007	309.213654
9346.184545	0.254297	0.331007	540.623779
9346.185440	0.248698	0.331007	763.208008
9346.186397	0.467593	0.331007	1210.694336
9346.187319	0.100616	0.331007	1303.462646
9346.188218	0.101188	0.331007	1394.430420
9346.189146	0.099965	0.331007	1487.197510
9346.190055	0.099283	0.331007	1577.446167
9346.190959	0.101931	0.331007	1669.591919
9346.191846	0.101382	0.331007	1759.517578
9346.192800	0.099254	0.331007	1854.206055
9346.193703	0.099543	0.331007	1944.093750
9346.194602	0.100851	0.331007	2034.758667
9346.195490	0.099858	0.331007	2123.432861
9347.195341	0.694713	0.343632	303.589630
9347.196240	0.254604	0.343632	532.479065
9347.197218	0.248826	0.343632	775.830566
9347.198136	0.485186	0.343632	1221.230957
9347.199024	0.101862	0.343632	1311.684082
9347.199975	0.100177	0.343632	1406.952393
9347.200878	0.102502	0.343632	1499.512085
9347.201799	0.101060	0.343632	1592.587891
9347.202692	0.100613	0.343632	1682.435059
9347.203621	0.099302	0.343632	1774.686401
9347.204536	0.101115	0.343632	1867.206177
9347.205432	0.101884	0.343632	1958.493896
9347.206346	0.099613	0.343632	2049.540283
9347.207286	0.100063	0.343632	2143.599854
9348.216289	0.673206	0.332381	302.942505
9348.217217	0.255183	0.332381	539.752441
9348.218114	0.249452	0.332381	763.510803
9348.219063	0.474979	0.332381	1214.266113
9348.219969	0.098961	0.332381	1303.924927
9348.220872	0.101371	0.332381	1395.462769
9348.221765	0.101404	0.332381	1486.016357
9348.222720	0.099305	0.332381	1580.853027
9348.223628	0.100027	0.332381	1671.677368
9348.224528	0.101704	0.332381	1763.211060
9348.225456	0.100338	0.332381	1856.324829
9348.226351	0.099196	0.332381	1945.104858
9348.227267	0.100858	0.332381	2037.490967
9348.228158	0.101503	0.332381	2127.929932
9349.232072	0.714210	0.341287	312.109863
9349.233033	0.254993	0.341287	557.157837
9349.233952	0.248925	0.341287	785.919495
9349.234887	0.467465	0.341287	1222.998901
9349.235777	0.100349	0.341287	1312.309570
9349.236718	0.100140	0.341287	1406.541626
9349.237616	0.102473	0.341287	1498.562500
9349.238538	0.101301	0.341287	1591.962280
9349.239429	0.100225	0.341287	1681.262451
9349.240368	0.101096	0.341287	1776.191772
9349.241273	0.101759	0.341287	1868.283691
9349.242165	0.102173	0.341287	1959.421875
9349.243107	0.099434	0.341287	2053.088379
9349.244012	0.101177	0.341287	2144.653320
9350.249960	0.632787	0.338314	298.675415
9350.250861	0.254839	0.338314	528.285278
9350.251763	0.248844	0.338314	752.742554
9350.252725	0.449685	0.338314	1185.339600
9350.253626	0.100638	0.338314	1276.014771
9350.254524	0.102180	0.338314	1367.772583
9350.255445	0.100144	0.338314	1460.005249
9350.256355	0.099540	0.338314	1550.586426
9350.257257	0.101748	0.338314	1642.363159
9350.258147	0.101056	0.338314	1732.302979
9350.259104	0.099188	0.338314	1827.226074
9350.260013	0.099617	0.338314	1917.777710
9350.260909	0.102286	0.338314	2009.426270
9350.261823	0.100239	0.338314	2101.044922
9351.270865	0.728617	0.340006	322.777313
9351.271769	0.255245	0.340006	553.519104
9351.272713	0.249576	0.340006	789.119263
9351.273640	0.477250	0.340006	1231.529785
9351.274547	0.100994	0.340006	1323.130981
9351.275435	0.101862	0.340006	1413.584106
9351.276395	0.100071	0.340006	1509.652100
9351.277294	0.101580	0.340006	1600.972168
9351.278220	0.101221	0.340006	1694.702515
9351.279105	0.100679	0.340006	1783.803223
9351.280054	0.100510	0.340006	1879.187500
9351.280958	0.101012	0.340006	1970.502319
9351.281851	0.101880	0.340006	2061.480957
9351.282785	0.099540	0.340006	2154.451172
9352.281544	0.710043	0.340768	313.128845
9352.282509	0.255330	0.340768	559.521912
9352.283424	0.248782	0.340768	787.157227
9352.284322	0.475492	0.340768	1214.148926
9352.285265	0.099064	0.340768	1307.566040
9352.286175	0.099595	0.340768	1398.197266
9352.287070	0.101733	0.340768	1489.248657
9352.287960	0.101078	0.340768	1579.208008
9352.288916	0.099137	0.340768	1673.982910
9352.289816	0.100133	0.340768	1764.102661
9352.290717	0.100583	0.340768	1854.728394
9352.291632	0.100009	0.340768	1946.236206
9352.292549	0.098958	0.340768	2036.980225
9352.293462	0.100181	0.340768	2128.445068
9353.307602	0.691926	0.337718	306.523315
9353.308500	0.254872	0.337718	535.398193
9353.309441	0.249419	0.337718	770.101440
9353.310360	0.486420	0.337718	1217.121094
9353.311285	0.101975	0.337718	1311.447998
9353.312174	0.100873	0.337718	1401.123901
9353.313137	0.100529	0.337718	1497.932861
9353.314046	0.100983	0.337718	1589.726074
9353.314939	0.101298	0.337718	1680.184814
9353.315869	0.099679	0.337718	1772.886230
9353.316783	0.100573	0.337718	1864.809570
9353.317688	0.100865	0.337718	1956.092773
9353.318571	0.100433	0.337718	2044.775391
9353.319534	0.099144	0.337718	2140.251465
9354.314188	0.714782	0.345864	313.789093
9354.315164	0.255483	0.345864	563.140869
9354.316073	0.248862	0.345864	789.356689
9354.316984	0.468018	0.345864	1215.720703
9354.317871	0.099294	0.345864	1303.794922
9354.318808	0.099521	0.345864	1397.046509
9354.319723	0.101078	0.345864	1489.532715
9354.320618	0.100474	0.345864	1579.456665
9354.321548	0.100291	0.345864	1672.726807
9354.322453	0.099225	0.345864	1762.525269
9354.323344	0.100785	0.345864	1852.324585
9354.324234	0.101506	0.345864	1942.665283
9354.325185	0.098983	0.345864	2036.798218
9354.326086	0.099734	0.345864	2126.658447
9355.344337	0.727057	0.335901	323.540314
9355.345229	0.255095	0.335901	551.085266
9355.346202	0.249181	0.335901	793.538269
9355.347119	0.475221	0.335901	1229.315918
9355.348008	0.100657	0.335901	1318.799805
9355.348942	0.101327	0.335901	1413.439087
9355.349858	0.101506	0.335901	1506.418945
9355.350761	0.101089	0.335901	1597.702148
9355.351646	0.100360	0.335901	1686.520874
9355.352596	0.099265	0.335901	1780.822754
9355.353494	0.100997	0.335901	1871.518311
9355.354381	0.101195	0.335901	1961.278320
9355.355319	0.099210	0.335901	2054.337402
9355.356229	0.099554	0.335901	2144.931885
9356.348895	0.647552	0.350976	293.341278
9356.349817	0.254601	0.350976	528.083252
9356.350716	0.248899	0.350976	751.843384
9356.351682	0.486790	0.350976	1222.082031
9356.352585	0.099027	0.350976	1311.503540
9356.353483	0.101722	0.350976	1402.850220
9356.354369	0.101543	0.350976	1492.817261
9356.355308	0.099408	0.350976	1586.161377
9356.356216	0.100272	0.350976	1677.208496
9356.357117	0.101843	0.350976	1768.969238
9356.358048	0.099858	0.350976	1861.937378
9356.358961	0.099309	0.350976	1952.606567
9356.359858	0.100679	0.350976	2042.915405
9356.360746	0.101909	0.350976	2133.410645
9357.379104	0.551752	0.331442	288.014374
9357.380016	0.255524	0.331442	521.052002
9357.380938	0.248628	0.331442	750.286987
9357.381838	0.476558	0.331442	1179.188843
9357.382791	0.100316	0.331442	1274.790161
9357.383689	0.101235	0.331442	1365.699463
9357.384579	0.102001	0.331442	1456.480103
9357.385519	0.100792	0.331442	1551.224854
9357.386425	0.102067	0.331442	1643.697266
9357.387352	0.101188	0.331442	1737.498291
9357.388245	0.101444	0.331442	1828.087891
9357.389198	0.099781	0.331442	1923.179687
9357.390101	0.101609	0.331442	2014.932495
9357.391028	0.101521	0.331442	2109.042480
9358.386634	0.718414	0.352579	314.665466
9358.387531	0.254454	0.352579	542.911011
9358.388519	0.248284	0.352579	788.215271
9358.389447	0.485024	0.352579	1238.317871
9358.390341	0.101433	0.352579	1328.999023
9358.391286	0.100217	0.352579	1423.704346
9358.392191	0.099847	0.352579	1514.066284
9358.393092	0.103132	0.352579	1606.988525
9358.393979	0.101283	0.352579	1696.826538
9358.394926	0.099294	0.352579	1790.858398
9358.395830	0.100126	0.352579	1881.372070
9358.396735	0.101060	0.352579	1972.830933
9358.397630	0.099452	0.352579	2061.840332
9358.398564	0.098789	0.352579	2154.109375
9359.409640	0.687382	0.334737	318.945038
9359.410579	0.255000	0.334737	558.390015
9359.411476	0.248873	0.334737	781.629395
9359.412444	0.461964	0.334737	1228.810669
9359.413336	0.101785	0.334737	1319.602539
9359.414227	0.102180	0.334737	1410.645020
9359.415147	0.100697	0.334737	1503.286255
9359.416066	0.100056	0.334737	1595.237793
9359.416968	0.100540	0.334737	1685.924438
9359.417858	0.102008	0.334737	1776.711548
9359.418790	0.099503	0.334737	1869.448486
9359.419705	0.101049	0.334737	1961.907959
9359.420627	0.100247	0.334737	2054.335205
9359.421516	0.099847	0.334737	2143.099609
9360.427506	0.735421	0.349372	351.531311
9360.428441	0.255410	0.349372	590.339844
9360.429359	0.248840	0.349372	818.775269
9360.430266	0.477015	0.349372	1251.428223
9360.431207	0.099082	0.349372	1344.664429
9360.432120	0.100192	0.349372	1436.139404
9360.433025	0.101635	0.349372	1528.118652
9360.433919	0.100591	0.349372	1618.046875
9360.434858	0.099258	0.349372	1711.250000
9360.435763	0.099932	0.349372	1801.688110
9360.436652	0.100854	0.349372	1891.347778
9360.437582	0.100583	0.349372	1984.890381
9360.438496	0.099053	0.349372	2075.424561
9360.439404	0.101528	0.349372	2167.612305
9361.440224	0.635273	0.336437	292.225800
9361.441124	0.255403	0.336437	522.088379
9361.442085	0.249342	0.336437	761.706116
9361.442996	0.465985	0.336437	1186.218506
9361.443912	0.100807	0.336437	1278.557617
9361.444814	0.100605	0.336437	1369.303711
9361.445760	0.100726	0.336437	1464.590820
9361.446662	0.100723	0.336437	1555.442627
9361.447553	0.101847	0.336437	1646.188232
9361.448491	0.099320	0.336437	1739.350464
9361.449410	0.100591	0.336437	1831.793457
9361.450328	0.100426	0.336437	1923.984497
9361.451215	0.099983	0.336437	2012.669312
9361.452167	0.099111	0.336437	2107.023193
9362.469334	0.714587	0.346226	317.991394
9362.470232	0.254861	0.346226	546.856445
9362.471177	0.249250	0.346226	782.398132
9362.472102	0.483439	0.346226	1229.578857
9362.473004	0.101298	0.346226	1320.949341
9362.473918	0.100635	0.346226	1412.929565
9362.474842	0.099946	0.346226	1505.279907
9362.475741	0.101598	0.346226	1596.616455
9362.476638	0.102330	0.346226	1688.406738
9362.477575	0.099972	0.346226	1782.080444
9362.478472	0.099115	0.346226	1870.986572
9362.479369	0.100499	0.346226	1961.134399
9362.480257	0.100558	0.346226	2050.429687
9362.481190	0.098767	0.346226	2142.579346
9363.468806	0.707087	0.337481	353.543701
9363.469721	0.254791	0.337481	586.677734
9363.470652	0.247925	0.337481	817.495728
9363.471553	0.485669	0.337481	1255.083496
9363.472511	0.101466	0.337481	1352.287964
9363.473438	0.101971	0.337481	1446.815430
9363.474325	0.101741	0.337481	1537.059448
9363.475250	0.102788	0.337481	1632.138428
9363.476175	0.100928	0.337481	1725.496582
9363.477096	0.101953	0.337481	1819.395386
9363.477984	0.101213	0.337481	1909.272827
9363.478918	0.100594	0.337481	2003.228027
9363.479832	0.100862	0.337481	2095.415771
9363.480758	0.101539	0.337481	2189.441162
9364.510156	0.720985	0.341215	317.954437
9364.511122	0.255798	0.341215	565.055664
9364.512033	0.249247	0.341215	792.119507
9364.512936	0.487189	0.341215	1232.050903
9364.513883	0.099547	0.341215	1326.322021
9364.514783	0.099510	0.341215	1415.881470
9364.515679	0.100444	0.341215	1505.879639
9364.516569	0.102122	0.341215	1596.767822
9364.517501	0.099163	0.341215	1689.187378
9364.518407	0.099569	0.341215	1779.396973
9364.519310	0.101125	0.341215	1870.713257
9364.520198	0.101133	0.341215	1960.519165
9364.521141	0.099045	0.341215	2053.918945
9364.522045	0.100280	0.341215	2144.571533
9365.500361	0.710248	0.345606	311.088531
9365.501312	0.254700	0.345606	553.307983
9365.502237	0.248745	0.345606	783.397217
9365.503141	0.470112	0.345606	1208.378662
9365.504033	0.099961	0.345606	1297.543823
9365.504974	0.100074	0.345606	1391.713867
9365.505878	0.101576	0.345606	1483.538452
9365.506797	0.102129	0.345606	1577.394897
9365.507694	0.101320	0.345606	1668.278564
9365.508651	0.100144	0.345606	1764.116455
9365.509551	0.101851	0.345606	1855.781982
9365.510439	0.102129	0.345606	1946.472412
9365.511361	0.099939	0.345606	2038.616089
9365.512272	0.099690	0.345606	2129.433594
9366.546929	0.714983	0.338770	341.761841
9366.547854	0.255289	0.338770	577.904419
9366.548768	0.248774	0.338770	805.284241
9366.549668	0.488434	0.338770	1244.874756
9366.550610	0.099038	0.338770	1338.168579
9366.551514	0.099968	0.338770	1428.539917
9366.552410	0.101675	0.338770	1519.640503
9366.553298	0.101605	0.338770	1609.865967
9366.554227	0.099485	0.338770	1702.287354
9366.555138	0.100056	0.338770	1793.438477
9366.556034	0.101689	0.338770	1884.552246
9366.556964	0.099902	0.338770	1977.461426
9366.557872	0.099020	0.338770	2067.371338
9366.558781	0.101125	0.338770	2159.294434
9367.533003	0.725845	0.353614	319.371674
9367.533982	0.255103	0.353614	569.117065
9367.534899	0.248240	0.353614	796.752930
9367.535818	0.483303	0.353614	1240.908569
9367.536714	0.099917	0.353614	1330.434204
9367.537653	0.099727	0.353614	1424.077393
9367.538564	0.101924	0.353614	1516.930054
9367.539452	0.101803	0.353614	1607.331055
9367.540380	0.099763	0.353614	1699.911255
9367.541280	0.099774	0.353614	1789.708008
9367.542186	0.101913	0.353614	1882.041016
9367.543076	0.101353	0.353614	1972.244751
9367.544022	0.098844	0.353614	2065.751221
9367.544926	0.099730	0.353614	2155.907227
9368.581635	0.597968	0.330826	297.787811
9368.582559	0.255549	0.330826	533.915405
9368.583485	0.248569	0.330826	764.090576
9368.584384	0.486006	0.330826	1201.009888
9368.585344	0.100642	0.330826	1297.626343
9368.586268	0.101276	0.330826	1391.205078
9368.587161	0.102294	0.330826	1482.553345
9368.588097	0.101045	0.330826	1577.131348
9368.589007	0.101052	0.330826	1669.088867
9368.589922	0.101580	0.330826	1762.034180
9368.590828	0.101704	0.330826	1854.178101
9368.591776	0.102019	0.330826	1950.892090
9368.592689	0.101093	0.330826	2043.189575
9368.593610	0.101316	0.330826	2136.501465
9369.571794	0.691703	0.360672	308.499481
9369.572696	0.255081	0.360672	538.582153
9369.573636	0.249250	0.360672	772.877563
9369.574558	0.493590	0.360672	1227.967651
9369.575466	0.101067	0.360672	1319.736328
9369.576354	0.100906	0.360672	1409.340698
9369.577303	0.099470	0.360672	1503.737915
9369.578204	0.100162	0.360672	1593.984253
9369.579093	0.101675	0.360672	1684.373169
9369.580022	0.099569	0.360672	1776.872803
9369.580930	0.098881	0.360672	1866.656372
9369.581826	0.101224	0.360672	1957.353394
9369.582717	0.100441	0.360672	2046.846069
9369.583652	0.098540	0.360672	2138.980957
9370.613196	0.715269	0.331656	313.287628
9370.614142	0.254941	0.331656	554.462158
9370.615064	0.248855	0.331656	783.906433
9370.616008	0.472639	0.331656	1230.077759
9370.616898	0.101173	0.331656	1320.121826
9370.617848	0.100276	0.331656	1415.383911
9370.618751	0.101331	0.331656	1506.885376
9370.619671	0.101598	0.331656	1600.355469
9370.620564	0.100807	0.331656	1690.375977
9370.621509	0.100994	0.331656	1785.814941
9370.622415	0.100613	0.331656	1876.970093
9370.623308	0.101140	0.331656	1967.288208
9370.624240	0.099869	0.331656	2060.366455
9370.625152	0.101082	0.331656	2152.552734
9371.610583	0.688396	0.358794	307.024597
9371.611496	0.254879	0.358794	539.729248
9371.612409	0.249390	0.358794	767.421997
9371.613372	0.482018	0.358794	1231.605225
9371.614271	0.098829	0.358794	1320.452759
9371.615179	0.101202	0.358794	1412.344482
9371.616069	0.101195	0.358794	1502.408081
9371.617013	0.099459	0.358794	1596.297607
9371.617922	0.100312	0.358794	1687.481689
9371.618813	0.101675	0.358794	1778.073975
9371.619738	0.100250	0.358794	1870.805420
9371.620650	0.099309	0.358794	1961.375244
9371.621566	0.101755	0.358794	2054.583252
9371.622462	0.100950	0.358794	2145.034180
9372.645832	0.719473	0.330600	311.531647
9372.646786	0.254751	0.330600	554.564087
9372.647724	0.248716	0.330600	787.859497
9372.648645	0.472390	0.330600	1222.930786
9372.649537	0.101583	0.330600	1313.543091
9372.650488	0.099749	0.330600	1408.403931
9372.651398	0.101803	0.330600	1501.044678
9372.652296	0.102667	0.330600	1593.239868
9372.653184	0.100869	0.330600	1682.811646
9372.654118	0.099576	0.330600	1775.816040
9372.655017	0.101722	0.330600	1867.264526
9372.655912	0.101733	0.330600	1958.315918
9372.656848	0.099979	0.330600	2051.896484
9372.657755	0.099862	0.330600	2142.471436
9373.648335	0.719279	0.349171	317.201843
9373.649227	0.254879	0.349171	544.554077
9373.650187	0.249192	0.349171	783.778320
9373.651126	0.485460	0.349171	1239.625488
9373.652024	0.101473	0.349171	1330.748535
9373.652955	0.100847	0.349171	1424.637207
9373.653861	0.099862	0.349171	1515.112183
9373.654756	0.102305	0.349171	1606.674927
9373.655651	0.102257	0.349171	1698.195068
9373.656602	0.099272	0.349171	1792.603149
9373.657509	0.099851	0.349171	1883.168091
9373.658406	0.100931	0.349171	1973.703613
9373.659294	0.100364	0.349171	2062.826660
9373.660227	0.098807	0.349171	2155.013916
9374.677455	0.700580	0.334206	308.955688
9374.678358	0.254821	0.334206	539.058655
9374.679253	0.249562	0.334206	762.416443
9374.680228	0.493359	0.334206	1243.441772
9374.681134	0.099609	0.334206	1333.687866
9374.682031	0.101407	0.334206	1424.650391
9374.682968	0.100210	0.334206	1518.547119
9374.683875	0.099631	0.334206	1608.912720
9374.684779	0.102001	0.334206	1701.121338
9374.685666	0.102876	0.334206	1792.372314
9374.686598	0.099327	0.334206	1884.945435
9374.687503	0.099672	0.334206	1975.148315
9374.688409	0.102220	0.334206	2067.760010
9374.689303	0.100558	0.334206	2157.658691
9375.687134	0.679263	0.348796	307.026733
9375.688041	0.254586	0.348796	537.936401
9375.688935	0.249382	0.348796	760.884155
9375.689895	0.471174	0.348796	1213.211548
9375.690803	0.099866	0.348796	1303.889648
9375.691696	0.101525	0.348796	1394.551147
9375.692609	0.101232	0.348796	1486.975708
9375.693536	0.099514	0.348796	1579.225342
9375.694446	0.101224	0.348796	1671.339478
9375.695346	0.101536	0.348796	1762.721558
9375.696296	0.099269	0.348796	1857.026855
9375.697195	0.098990	0.348796	1946.019287
9375.698094	0.100562	0.348796	2036.424072
9375.698979	0.100254	0.348796	2125.148682
9376.710103	0.692476	0.334463	304.689270
9376.711030	0.254663	0.334463	540.761963
9376.711931	0.249034	0.334463	765.141968
9376.712892	0.477275	0.334463	1223.803589
9376.713798	0.098785	0.334463	1313.303223
9376.714702	0.100858	0.334463	1404.479004
9376.715593	0.101602	0.334463	1495.005981
9376.716541	0.099518	0.334463	1589.348877
9376.717445	0.100807	0.334463	1680.478271
9376.718343	0.101953	0.334463	1772.032227
9376.719279	0.100946	0.334463	1866.517700
9376.720183	0.099170	0.334463	1956.167358
9376.721097	0.100386	0.334463	2047.919922
9376.721998	0.100660	0.334463	2138.614990
9377.722889	0.542010	0.343994	271.005249
9377.723802	0.255297	0.343994	504.091095
9377.724711	0.248719	0.343994	730.177124
9377.725615	0.469724	0.343994	1154.807739
9377.726568	0.098884	0.343994	1249.044434
9377.727474	0.100950	0.343994	1340.504883
9377.728365	0.100986	0.343994	1430.483643
9377.729288	0.099360	0.343994	1522.193237
9377.730208	0.099137	0.343994	1613.399292
9377.731110	0.101774	0.343994	1705.199097
9377.732002	0.100840	0.343994	1795.148193
9377.732956	0.099049	0.343994	1889.640991
9377.733861	0.099393	0.343994	1979.591919
9377.734760	0.101019	0.343994	2070.408203
9378.743763	0.700807	0.335748	311.158234
9378.744665	0.255103	0.335748	541.260742
9378.745565	0.249551	0.335748	765.856445
9378.746526	0.487258	0.335748	1234.111694
9378.747442	0.099979	0.335748	1325.692627
9378.748345	0.101393	0.335748	1417.250366
9378.749274	0.099679	0.335748	1509.852173
9378.750178	0.099668	0.335748	1599.952026
9378.751072	0.101316	0.335748	1690.528442
9378.751961	0.100518	0.335748	1779.888550
9378.752902	0.099434	0.335748	1873.455566
9378.753799	0.100419	0.335748	1963.531128
9378.754708	0.102107	0.335748	2056.346436
9378.755618	0.100104	0.335748	2147.440918
9379.758547	0.718894	0.348047	316.313385
9379.759497	0.254945	0.348047	558.511230
9379.760417	0.248595	0.348047	787.218567
9379.761328	0.469061	0.348047	1214.533447
9379.762253	0.100422	0.348047	1307.424194
9379.763143	0.101550	0.348047	1397.803955
9379.764091	0.101484	0.348047	1494.011108
9379.764990	0.101104	0.348047	1584.903198
9379.765909	0.101239	0.348047	1677.941895
9379.766799	0.101986	0.348047	1768.709473
9379.767760	0.101177	0.348047	1865.940308
9379.768691	0.102275	0.348047	1961.158691
9379.769582	0.101660	0.348047	2051.737793
9379.770520	0.100895	0.348047	2146.377197
9380.780503	0.706417	0.335724	317.887756
9380.781402	0.255143	0.335724	547.261169
9380.782334	0.249730	0.335724	780.009766
9380.783262	0.488899	0.335724	1233.708008
9380.784165	0.101287	0.335724	1325.169800
9380.785056	0.101342	0.335724	1415.465088
9380.785996	0.099917	0.335724	1509.387085
9380.786895	0.100679	0.335724	1599.897217
9380.787806	0.101349	0.335724	1692.226074
9380.788695	0.100884	0.335724	1781.911743
9380.789643	0.099269	0.335724	1876.018555
9380.790548	0.100382	0.335724	1966.864380
9380.791441	0.101832	0.335724	2057.800537
9380.792361	0.099203	0.335724	2149.067139
9381.793298	0.551005	0.348986	280.461365
9381.794214	0.254949	0.348986	513.994385
9381.795148	0.247895	0.348986	745.528809
9381.796050	0.473950	0.348986	1173.031860
9381.797018	0.099917	0.348986	1269.751465
9381.797910	0.100796	0.348986	1359.661377
9381.798799	0.101796	0.348986	1450.157715
9381.799751	0.100001	0.348986	1545.358887
9381.800646	0.101104	0.348986	1635.846558
9381.801565	0.100961	0.348986	1728.629395
9381.802462	0.101338	0.348986	1819.529541
9381.803402	0.099401	0.348986	1912.966187
9381.804316	0.100653	0.348986	2004.963135
9381.805238	0.101624	0.348986	2098.660156
9382.816225	0.659355	0.337070	299.347382
9382.817146	0.254575	0.337070	533.811157
9382.818043	0.249097	0.337070	757.250854
9382.819009	0.459097	0.337070	1200.738281
9382.819902	0.099635	0.337070	1289.712402
9382.820812	0.101646	0.337070	1382.209839
9382.821703	0.101034	0.337070	1472.231079
9382.822662	0.099551	0.337070	1567.700317
9382.823564	0.100078	0.337070	1657.970825
9382.824465	0.101781	0.337070	1749.675537
9382.825400	0.099646	0.337070	1842.844482
9382.826302	0.098954	0.337070	1932.100830
9382.827198	0.101063	0.337070	2022.653442
9382.828090	0.101096	0.337070	2112.831299
9383.824842	0.713972	0.349413	313.433777
9383.825792	0.254608	0.349413	555.311523
9383.826715	0.248804	0.349413	784.957336
9383.827623	0.485977	0.349413	1226.223999
9383.828509	0.100807	0.349413	1315.538940
9383.829458	0.099349	0.349413	1409.821533
9383.830367	0.101429	0.349413	1502.020874
9383.831264	0.101455	0.349413	1593.026123
9383.832154	0.100503	0.349413	1682.473755
9383.833088	0.099514	0.349413	1775.419922
9383.833993	0.100404	0.349413	1866.285645
9383.834886	0.101305	0.349413	1956.750977
9383.835816	0.099972	0.349413	2049.724854
9383.836724	0.100624	0.349413	2141.091309
9384.853966	0.705564	0.338552	309.742584
9384.854860	0.254747	0.338552	537.486694
9384.855829	0.249060	0.338552	778.825928
9384.856750	0.490012	0.338552	1230.127197
9384.857639	0.101473	0.338552	1320.337036
9384.858586	0.100217	0.338552	1415.242798
9384.859485	0.099382	0.338552	1504.587524
9384.860387	0.101887	0.338552	1596.489746
9384.861277	0.101532	0.338552	1686.853271
9384.862225	0.099045	0.338552	1780.748291
9384.863124	0.099873	0.338552	1870.534180
9384.864032	0.101125	0.338552	1962.356079
9384.864918	0.100170	0.338552	2051.106445
9384.865875	0.098906	0.338552	2145.759766
9385.858561	0.662150	0.357743	325.777649
9385.859481	0.255275	0.357743	560.630310
9385.860386	0.248917	0.357743	785.900391
9385.861289	0.483168	0.357743	1222.200806
9385.862263	0.098650	0.357743	1318.285767
9385.863175	0.100371	0.357743	1409.824219
9385.864072	0.101243	0.357743	1500.638916
9385.864995	0.100657	0.357743	1593.545044
9385.865895	0.099456	0.357743	1683.055054
9385.866802	0.100525	0.357743	1774.231201
9385.867695	0.101832	0.357743	1865.167480
9385.868621	0.099628	0.357743	1957.422729
9385.869519	0.099375	0.357743	2046.661499
9385.870428	0.102788	0.357743	2140.095947
9386.892750	0.699152	0.336002	309.024994
9386.893658	0.254568	0.336002	540.172607
9386.894555	0.249148	0.336002	763.658325
9386.895527	0.488335	0.336002	1238.319824
9386.896435	0.099423	0.336002	1328.595581
9386.897325	0.101638	0.336002	1419.053589
9386.898253	0.100415	0.336002	1512.238770
9386.899160	0.099653	0.336002	1602.624268
9386.900069	0.102067	0.336002	1695.402832
9386.900963	0.101887	0.336002	1786.489990
9386.901893	0.099532	0.336002	1879.055176
9386.902806	0.099617	0.336002	1970.005249
9386.903705	0.101327	0.336002	2061.098145
9386.904595	0.101074	0.336002	2151.054199
9387.889106	0.687389	0.361066	305.200684
9387.890004	0.254590	0.361066	533.822327
9387.890902	0.249547	0.361066	757.915649
9387.891869	0.491089	0.361066	1232.798584
9387.892781	0.098892	0.361066	1322.987671
9387.893689	0.102187	0.361066	1415.773926
9387.894579	0.100389	0.361066	1505.120483
9387.895526	0.099188	0.361066	1599.051758
9387.896432	0.101008	0.361066	1690.565308
9387.897328	0.101305	0.361066	1781.334473
9387.898263	0.100071	0.361066	1874.900635
9387.899171	0.099185	0.361066	1964.960205
9387.900074	0.102484	0.361066	2057.503418
9387.900968	0.100917	0.361066	2147.722900
9388.930504	0.725768	0.332743	316.434784
9388.931464	0.255018	0.332743	561.252380
9388.932377	0.249023	0.332743	788.610779
9388.933295	0.469124	0.332743	1219.266235
9388.934184	0.100730	0.332743	1308.815186
9388.935132	0.099829	0.332743	1403.453125
9388.936027	0.100181	0.332743	1493.114868
9388.936929	0.102385	0.332743	1585.466309
9388.937817	0.100920	0.332743	1675.083618
9388.938750	0.099203	0.332743	1767.639893
9388.939659	0.100551	0.332743	1859.040283
9388.940560	0.100858	0.332743	1949.913452
9388.941483	0.099543	0.332743	2041.792114
9388.942399	0.098763	0.332743	2132.259521
9389.921754	0.678706	0.363906	302.024200
9389.922671	0.254810	0.363906	535.684570
9389.923585	0.248903	0.363906	763.181519
9389.924505	0.407494	0.363906	1138.075928
9389.925426	0.098357	0.363906	1228.662598
9389.926328	0.101796	0.363906	1320.482300
9389.927223	0.103433	0.363906	1413.054443
9389.928179	0.099485	0.363906	1508.161987
9389.929081	0.099071	0.363906	1597.524048
9389.929983	0.100869	0.363906	1688.508057
9389.930870	0.100946	0.363906	1778.047241
9389.931812	0.099192	0.363906	1871.485962
9389.932718	0.099833	0.363906	1961.934448
9389.933620	0.101166	0.363906	2053.186035
9390.968285	0.678907	0.330673	303.471619
9390.969205	0.255205	0.330673	538.260315
9390.970113	0.249510	0.330673	764.815796
9390.971022	0.415195	0.330673	1142.228271
9390.971972	0.098851	0.330673	1236.136963
9390.972878	0.101726	0.330673	1328.300781
9390.973773	0.102151	0.330673	1419.725830
9390.974723	0.099727	0.330673	1514.466064
9390.975621	0.099375	0.330673	1603.704834
9390.976528	0.102711	0.330673	1696.863892
9390.977413	0.101642	0.330673	1786.816895
9390.978356	0.098888	0.330673	1880.068237
9390.979270	0.099803	0.330673	1971.288574
9390.980168	0.101074	0.330673	2062.053223
9391.955421	0.687451	0.359185	306.603210
9391.956335	0.254978	0.359185	539.653137
9391.957233	0.249412	0.359185	763.624756
9391.958171	0.453721	0.359185	1189.214722
9391.959093	0.099181	0.359185	1280.659546
9391.959996	0.101367	0.359185	1372.194092
9391.960888	0.101367	0.359185	1462.613647
9391.961833	0.099357	0.359185	1556.505737
9391.962742	0.100529	0.359185	1647.886230
9391.963641	0.101147	0.359185	1738.817749
9391.964527	0.100236	0.359185	1827.626465
9391.965465	0.099199	0.359185	1920.675293
9391.966370	0.101656	0.359185	2012.674438
9391.967260	0.100913	0.359185	2102.487061
9393.003975	0.720205	0.334012	314.729614
9393.004934	0.254941	0.334012	559.218384
9393.005853	0.248441	0.334012	787.535828
9393.006761	0.480817	0.334012	1224.117310
9393.007700	0.099547	0.334012	1317.592041
9393.008612	0.099507	0.334012	1408.342285
9393.009512	0.101887	0.334012	1500.040771
9393.010400	0.100690	0.334012	1589.453247
9393.011344	0.099174	0.334012	1683.073120
9393.012241	0.099492	0.334012	1772.317627
9393.013143	0.101565	0.334012	1863.929199
9393.014028	0.100576	0.334012	1952.939087
9393.014959	0.099064	0.334012	2045.167358
9393.015865	0.100404	0.334012	2136.133545
9393.992183	0.595243	0.350375	282.145142
9393.993088	0.255190	0.350375	513.092468
9393.994006	0.249338	0.350375	741.985107
9393.994915	0.467626	0.350375	1167.056885
9393.995877	0.100770	0.350375	1263.997925
9393.996777	0.101631	0.350375	1355.465698
9393.997670	0.103008	0.350375	1447.451660
9393.998604	0.100063	0.350375	1540.910889
9393.999508	0.101528	0.350375	1632.692505
9394.000425	0.102319	0.350375	1726.519287
9394.001312	0.101078	0.350375	1816.175415
9394.002256	0.099749	0.350375	1910.338013
9394.003159	0.100909	0.350375	2001.459229
9394.004068	0.102275	0.350375	2094.427490
9395.037709	0.639393	0.341436	325.451202
9395.038625	0.255330	0.341436	559.333130
9395.039527	0.248730	0.341436	783.687988
9395.040425	0.488708	0.341436	1222.548218
9395.041360	0.098496	0.341436	1314.642090
9395.042274	0.100027	0.341436	1406.066650
9395.043175	0.101638	0.341436	1497.642700
9395.044105	0.100126	0.341436	1590.759644
9395.045016	0.099093	0.341436	1681.033447
9395.045919	0.101521	0.341436	1772.706909
9395.046813	0.101008	0.341436	1863.008301
9395.047755	0.099163	0.341436	1956.419434
9395.048657	0.099298	0.341436	2045.986328
9395.049549	0.101481	0.341436	2136.507080
9396.029897	0.723168	0.342818	314.577942
9396.030860	0.254714	0.342818	559.867859
9396.031774	0.248643	0.342818	787.127197
9396.032682	0.476283	0.342818	1219.592163
9396.033569	0.100096	0.342818	1308.377686
9396.034512	0.099727	0.342818	1402.419800
9396.035416	0.100708	0.342818	1493.459839
9396.036321	0.102473	0.342818	1586.197998
9396.037229	0.100679	0.342818	1677.614258
9396.038162	0.099229	0.342818	1770.194458
9396.039066	0.101649	0.342818	1862.085327
9396.039964	0.101481	0.342818	1953.214966
9396.040908	0.098939	0.342818	2046.613525
9396.041816	0.098925	0.342818	2136.437012
9397.067266	0.715419	0.352784	352.701416
9397.068183	0.255315	0.352784	586.825195
9397.069089	0.248573	0.352784	812.032349
9397.069989	0.480535	0.352784	1244.513550
9397.070940	0.098818	0.352784	1338.489746
9397.071849	0.099602	0.352784	1429.027954
9397.072752	0.102118	0.352784	1521.240479
9397.073637	0.101353	0.352784	1610.937500
9397.074588	0.099119	0.352784	1705.199341
9397.075495	0.100378	0.352784	1796.242554
9397.076391	0.101254	0.352784	1886.965820
9397.077321	0.099954	0.352784	1979.922729
9397.078218	0.098738	0.352784	2068.490479
9397.079114	0.100884	0.352784	2158.882324
9398.070786	0.563540	0.340373	276.698151
9398.071714	0.255619	0.340373	513.912476
9398.072624	0.248716	0.340373	740.243896
9398.073528	0.482494	0.340373	1176.418457
9398.074475	0.098690	0.340373	1269.878052
9398.075385	0.100924	0.340373	1361.718994
9398.076275	0.101470	0.340373	1452.027100
9398.077199	0.100507	0.340373	1544.895142
9398.078105	0.099203	0.340373	1634.772949
9398.079008	0.101506	0.340373	1726.433228
9398.079898	0.101873	0.340373	1817.099854
9398.080833	0.099049	0.340373	1909.710693
9398.081732	0.099818	0.340373	1999.447144
9398.082644	0.102861	0.340373	2093.256592
9399.096776	0.728562	0.356760	318.381592
9399.097747	0.255187	0.356760	566.167969
9399.098669	0.248643	0.356760	795.416382
9399.099581	0.471215	0.356760	1225.164062
9399.100466	0.100265	0.356760	1313.898437
9399.101405	0.099858	0.356760	1407.665527
9399.102302	0.101495	0.356760	1498.706909
9399.103195	0.102261	0.356760	1590.025757
9399.104126	0.100345	0.356760	1683.447388
9399.105043	0.099313	0.356760	1774.517212
9399.105951	0.101221	0.356760	1866.425659
9399.106842	0.100909	0.356760	1956.335937
9399.107798	0.098584	0.356760	2050.582275
9399.108710	0.099990	0.356760	2141.773437
9400.112583	0.722886	0.338302	313.732391
9400.113505	0.254458	0.338302	548.342651
9400.114446	0.248804	0.338302	782.466919
9400.115365	0.486226	0.338302	1229.308228
9400.116261	0.100034	0.338302	1318.938843
9400.117215	0.100100	0.338302	1414.434326
9400.118115	0.100221	0.338302	1504.633179
9400.119016	0.102257	0.338302	1596.766846
9400.119901	0.102140	0.338302	1687.160645
9400.120842	0.099199	0.338302	1780.507080
9400.121748	0.099760	0.338302	1870.889160
9400.122647	0.100961	0.338302	1961.652832
9400.123563	0.100331	0.338302	2053.555908
9400.124479	0.098584	0.338302	2143.858887
9401.126347	0.714708	0.364176	315.901062
9401.127304	0.254828	0.364176	559.771362
9401.128219	0.248855	0.364176	787.473633
9401.129135	0.453992	0.364176	1203.330078
9401.130024	0.101045	0.364176	1293.159058
9401.130972	0.099631	0.364176	1387.609619
9401.131885	0.100525	0.364176	1479.388916
9401.132786	0.101561	0.364176	1570.895630
9401.133674	0.101748	0.364176	1661.247925
9401.134631	0.099646	0.364176	1756.609131
9401.135534	0.101671	0.364176	1848.418213
9401.136428	0.102041	0.364176	1939.642822
9401.137382	0.099137	0.364176	2034.219482
9401.138290	0.099331	0.364176	2124.412109
9402.152394	0.713719	0.336429	309.754242
9402.153290	0.254784	0.336429	538.040649
9402.154260	0.249148	0.336429	779.714172
9402.155182	0.478524	0.336429	1220.913452
9402.156074	0.100184	0.336429	1310.277832
9402.157012	0.099683	0.336429	1403.780151
9402.157912	0.099661	0.336429	1493.474731
9402.158809	0.102371	0.336429	1585.301147
9402.159695	0.100247	0.336429	1674.119629
9402.160643	0.099097	0.336429	1768.063232
9402.161545	0.100122	0.336429	1858.373291
9402.162446	0.102158	0.336429	1950.417847
9402.163378	0.099943	0.336429	2043.564331
9402.164291	0.099100	0.336429	2134.042969
